Serial number: 1604210U1
Readable name: Spectrometer Polarimetry
Number of Recorded Spectra: 1000
Integration time: 10.00 ms
Number of averages: 0.0
Frequency: 2.00 Hz
Number of Wavelenths: 1430
FFT Analysis on: Di Okt 17 11:21:22 2017

Wavelength 	 	DC Amplitude 	 	W Amplitude 	2W Amplitude 	W/2W 
277.3000		13380.000000		2412.355535		1686.43652		1.43045		
277.9000		12454.000000		2530.157580		1618.68723		1.56309		
278.5000		13480.000000		1610.923036		281.08092		5.73117		
279.1000		11614.000000		2701.752864		547.66147		4.93325		
279.7000		13121.000000		1589.762344		1091.21746		1.45687		
280.3000		14515.000000		2113.010502		1099.39936		1.92197		
280.9000		13438.000000		2737.981415		1614.63061		1.69573		
281.5000		11484.000000		1973.892883		1274.27143		1.54904		
282.1000		13245.000000		2043.713067		1318.44236		1.55010		
282.7000		13204.000000		2137.959770		1214.86876		1.75983		
283.3000		15663.000000		1553.111024		1008.20165		1.54048		
283.9000		11805.000000		2361.938249		1249.07486		1.89095		
284.5000		13126.000000		2096.923623		888.80938		2.35925		
285.1000		13615.000000		2530.737874		454.49686		5.56822		
285.7000		12922.000000		2018.072322		1125.33266		1.79331		
286.3000		13391.000000		2015.715016		1178.51622		1.71038		
286.9000		14871.000000		1625.914692		1182.46773		1.37502		
287.5000		11722.000000		2144.423459		472.64975		4.53702		
288.1000		16425.000000		1262.583478		997.35662		1.26593		
288.7000		13185.000000		3181.881391		1183.66864		2.68815		
289.3000		14978.000000		2954.632910		1185.43739		2.49244		
289.9000		12831.000000		2239.508851		1289.02098		1.73737		
290.5000		14441.000000		2540.106605		1421.20357		1.78729		
291.1000		13332.000000		2325.877449		815.07406		2.85358		
291.7000		12986.000000		2605.023589		1211.16255		2.15085		
292.3000		13055.000000		2695.228165		1840.63041		1.46430		
292.9000		14709.000000		1159.364774		943.96965		1.22818		
293.5000		13070.000000		1973.883037		891.19856		2.21486		
294.1000		14450.000000		2218.030266		1369.08345		1.62008		
294.7000		12736.000000		2104.787475		12.25684		171.72350		
295.3000		12966.000000		1664.210115		1135.45743		1.46567		
295.9000		13819.000000		2960.802829		1598.32829		1.85244		
296.5000		13203.000000		1761.289474		1825.63026		0.96476		
297.1000		13413.000000		2710.450303		1097.39801		2.46989		
297.7000		13774.000000		2542.876574		243.71961		10.43361		
298.3000		13001.000000		2184.645742		37.30460		58.56237		
298.9000		13953.000000		2386.880392		1558.09638		1.53192		
299.5000		13446.000000		2456.131551		1107.97103		2.21678		
300.1000		12378.000000		1949.516672		2086.15254		0.93450		
300.7000		12581.000000		1400.604972		1616.90287		0.86623		
301.3000		13870.000000		2029.698005		1453.42500		1.39649		
301.9000		12393.000000		2923.502127		65.87161		44.38182		
302.5000		13194.000000		1697.478549		978.10151		1.73548		
303.1000		11587.000000		2484.082771		747.85546		3.32161		
303.7000		12190.000000		2529.084103		1888.38938		1.33928		
304.3000		12217.000000		1871.326220		869.07812		2.15323		
304.9000		11629.000000		1602.824801		1064.35197		1.50592		
305.4900		12395.000000		2240.039006		864.29089		2.59177		
306.0900		13227.000000		2256.578758		1423.01309		1.58578		
306.6900		11831.000000		2367.469892		900.20942		2.62991		
307.2900		11377.000000		2843.166717		1354.42363		2.09917		
307.8900		12360.000000		3466.325272		2754.79796		1.25829		
308.4900		11848.000000		1829.209453		856.80301		2.13492		
309.0900		13100.000000		3026.675126		1406.48760		2.15194		
309.6900		11975.000000		1812.490844		1985.33726		0.91294		
310.2900		12614.000000		2196.365685		816.29019		2.69067		
310.8900		13627.000000		1936.115318		2079.66692		0.93097		
311.4900		12029.000000		2649.643631		1415.43314		1.87197		
312.0800		11404.000000		3097.428650		1511.96533		2.04861		
312.6800		11901.000000		2013.861678		782.62279		2.57322		
313.2800		11599.000000		2383.252446		913.24611		2.60965		
313.8800		12335.000000		1550.042385		1661.18335		0.93310		
314.4800		12472.000000		2376.857747		597.92109		3.97520		
315.0800		11118.000000		1860.989033		1340.12890		1.38866		
315.6800		12907.000000		2613.942394		1488.02051		1.75666		
316.2800		10844.000000		2819.009844		865.46425		3.25722		
316.8800		12727.000000		820.979566		518.90180		1.58215		
317.4700		10736.000000		1818.675364		608.15214		2.99049		
318.0700		11558.000000		1761.501712		847.06915		2.07953		
318.6700		10902.000000		2046.106793		1268.12335		1.61349		
319.2700		11866.000000		2278.130436		981.44737		2.32119		
319.8700		11681.000000		2498.958454		785.65384		3.18074		
320.4700		12430.000000		2056.921918		1517.88239		1.35513		
321.0700		11866.000000		3378.073211		1989.21572		1.69819		
321.6600		12045.000000		1997.152046		377.93241		5.28442		
322.2600		10954.000000		1850.388967		1269.20531		1.45791		
322.8600		12991.000000		1956.616297		967.29689		2.02277		
323.4600		11033.000000		2353.048289		669.18346		3.51630		
324.0600		10919.000000		1895.888756		1121.87362		1.68993		
324.6600		10231.000000		3424.645468		1777.20797		1.92698		
325.2600		10790.000000		2442.525603		1364.99798		1.78940		
325.8500		10711.000000		2914.415625		1321.57106		2.20527		
326.4500		12910.000000		1738.069924		1077.00155		1.61380		
327.0500		11908.000000		1808.484281		321.97342		5.61687		
327.6500		11571.000000		1463.461584		1477.39068		0.99057		
328.2500		10828.000000		2278.858858		22.60126		100.82884		
328.8500		12016.000000		2584.049465		2648.74560		0.97557		
329.4400		10429.000000		2431.034040		598.00533		4.06524		
330.0400		10777.000000		2289.823708		763.34167		2.99974		
330.6400		9606.000000		1658.203955		862.16815		1.92330		
331.2400		12144.000000		2291.498390		1184.29039		1.93491		
331.8400		10796.000000		2705.273020		1687.93880		1.60271		
332.4300		10540.000000		2424.871860		129.27447		18.75755		
333.0300		11170.000000		3212.718158		1320.21490		2.43348		
333.6300		11336.000000		2009.039916		1664.22688		1.20719		
334.2300		10597.000000		1669.874856		1278.75466		1.30586		
334.8300		10908.000000		2067.084810		1205.48011		1.71474		
335.4200		10985.000000		2105.919787		1650.68981		1.27578		
336.0200		11189.000000		1754.279099		1369.30583		1.28114		
336.6200		11017.000000		1550.468477		1397.83528		1.10919		
337.2200		11389.000000		1931.221978		1262.80745		1.52931		
337.8200		11157.000000		2697.357843		466.98652		5.77609		
338.4100		10617.000000		1491.546568		1156.47528		1.28973		
339.0100		8999.000000		1881.779511		1040.60367		1.80835		
339.6100		11247.000000		1532.544852		817.39297		1.87492		
340.2100		11741.000000		3078.441096		767.81240		4.00937		
340.8000		11958.000000		1464.050171		1065.17869		1.37446		
341.4000		11149.000000		1328.080311		727.23320		1.82621		
342.0000		10742.000000		2906.728493		975.62117		2.97936		
342.6000		9125.000000		1598.908791		941.38448		1.69847		
343.1900		12087.000000		1486.805792		922.67047		1.61142		
343.7900		10657.000000		859.927451		1199.67573		0.71680		
344.3900		10371.000000		2695.034786		913.12337		2.95145		
344.9900		8272.000000		2322.127908		820.19840		2.83118		
345.5800		10834.000000		2484.544103		2264.72956		1.09706		
346.1800		9423.000000		2789.335164		1956.32561		1.42580		
346.7800		11458.000000		2306.237561		625.74943		3.68556		
347.3800		9692.000000		1691.381865		554.61891		3.04963		
347.9700		11828.000000		1486.531383		1004.61173		1.47971		
348.5700		9290.000000		2766.151070		716.83309		3.85885		
349.1700		10522.000000		2008.005239		1763.76703		1.13848		
349.7700		10010.000000		1557.616875		494.17981		3.15192		
350.3600		11012.000000		2438.798313		781.97718		3.11876		
350.9600		9321.000000		1588.734615		842.92581		1.88479		
351.5600		8798.000000		1659.626945		468.93946		3.53911		
352.1500		10347.000000		2073.487004		348.19665		5.95493		
352.7500		11098.000000		2239.005023		551.13729		4.06252		
353.3500		10373.000000		2237.511243		958.15494		2.33523		
353.9500		9837.000000		2455.090608		1225.36074		2.00357		
354.5400		10349.000000		1964.212501		1396.82393		1.40620		
355.1400		8573.000000		967.717325		406.16957		2.38255		
355.7400		9302.000000		2364.595540		1369.84049		1.72618		
356.3300		10564.000000		1927.816093		938.33879		2.05450		
356.9300		9374.000000		2175.022270		1065.14525		2.04200		
357.5300		10384.000000		2124.607077		457.48428		4.64411		
358.1200		11766.000000		1887.009208		1267.50341		1.48876		
358.7200		9093.000000		2139.228963		1237.21424		1.72907		
359.3200		10515.000000		3298.815492		872.88064		3.77923		
359.9100		12122.000000		2222.085697		916.11501		2.42555		
360.5100		10527.000000		3013.991964		986.85633		3.05413		
361.1100		10689.000000		1139.406399		972.82725		1.17123		
361.7000		11179.000000		1381.949532		1850.50818		0.74679		
362.3000		13686.000000		2851.745799		1748.76406		1.63072		
362.9000		9681.000000		2045.547825		1603.76357		1.27547		
363.4900		11698.000000		2663.741750		749.57265		3.55368		
364.0900		12066.000000		1953.261829		646.77433		3.02001		
364.6900		10446.000000		1119.938832		667.82364		1.67700		
365.2800		10738.000000		1004.559251		796.01048		1.26199		
365.8800		10405.000000		2651.497391		2220.97732		1.19384		
366.4800		10128.000000		2314.369373		950.87691		2.43393		
367.0700		12706.000000		1978.056188		1996.17436		0.99092		
367.6700		10346.000000		2501.897420		394.61016		6.34017		
368.2700		10708.000000		1824.696166		1623.90887		1.12364		
368.8600		12110.000000		3315.081475		378.01972		8.76960		
369.4600		11493.000000		2185.674175		1733.12809		1.26112		
370.0500		10718.000000		1807.148906		698.32806		2.58782		
370.6500		9940.000000		2653.695838		1316.86160		2.01517		
371.2500		10231.000000		1946.803876		1194.26201		1.63013		
371.8400		12141.000000		2372.998248		2169.38736		1.09386		
372.4400		9834.000000		2652.404323		1672.66157		1.58574		
373.0400		12676.000000		1300.820296		1085.95696		1.19786		
373.6300		11021.000000		2841.825349		2785.76794		1.02012		
374.2300		10700.000000		2330.592509		2312.41049		1.00786		
374.8200		12190.000000		1923.153679		1049.61270		1.83225		
375.4200		11361.000000		2207.264615		1136.47097		1.94221		
376.0200		10167.000000		2503.919099		790.89566		3.16593		
376.6100		12551.000000		2824.019533		1087.94972		2.59573		
377.2100		11499.000000		2265.458779		474.50782		4.77433		
377.8000		11849.000000		2112.133433		1983.61748		1.06479		
378.4000		11437.000000		3324.077659		1433.12100		2.31947		
379.0000		12441.000000		2362.707822		1041.33140		2.26893		
379.5900		11345.000000		2446.036309		1043.40461		2.34428		
380.1900		11778.000000		2303.659332		1572.37329		1.46508		
380.7800		12428.000000		1624.956261		1127.05242		1.44178		
381.3800		11430.000000		2991.139448		2514.40502		1.18960		
381.9700		12163.000000		1337.074491		1341.12001		0.99698		
382.5700		13127.000000		2367.231328		1516.18055		1.56131		
383.1700		12357.000000		2860.883616		1607.87450		1.77930		
383.7600		13828.000000		2172.781244		1655.77040		1.31225		
384.3600		12153.000000		3440.678324		1237.06489		2.78132		
384.9500		11699.000000		1814.646430		1592.51911		1.13948		
385.5500		12155.000000		2822.703858		1358.85761		2.07726		
386.1400		13655.000000		2366.907409		2472.10883		0.95744		
386.7400		12803.000000		3076.815068		1373.51065		2.24011		
387.3300		11026.000000		2816.223259		1588.47537		1.77291		
387.9300		13067.000000		2617.539046		1665.52990		1.57160		
388.5200		12650.000000		3039.123831		1984.07129		1.53176		
389.1200		12850.000000		3336.162028		1636.35716		2.03877		
389.7200		13673.000000		2997.732488		1785.84439		1.67861		
390.3100		13501.000000		2573.472060		2068.20748		1.24430		
390.9100		14868.000000		2745.915673		629.58442		4.36147		
391.5000		14723.000000		1662.591052		1479.85577		1.12348		
392.1000		15140.000000		3147.331195		1529.15290		2.05822		
392.6900		15345.000000		2939.985433		1421.31120		2.06850		
393.2900		15283.000000		3235.682370		1631.35248		1.98344		
393.8800		16186.000000		3065.486864		2012.70262		1.52307		
394.4800		14497.000000		2577.286862		1582.22703		1.62890		
395.0700		15432.000000		3363.649388		1021.43707		3.29306		
395.6700		16865.000000		3813.104528		1855.75821		2.05474		
396.2600		16354.000000		2345.836011		2797.99790		0.83840		
396.8600		17107.000000		2514.043306		2540.22223		0.98969		
397.4500		17757.000000		4170.343809		1989.33404		2.09635		
398.0500		16320.000000		3115.116891		2053.08651		1.51728		
398.6400		18000.000000		3725.979026		2284.89554		1.63070		
399.2400		16784.000000		4169.291010		2442.64803		1.70687		
399.8300		17599.000000		3245.138021		2612.44134		1.24219		
400.4300		17833.000000		3155.599340		2043.10284		1.54451		
401.0200		18027.000000		3202.537625		2297.26219		1.39407		
401.6200		19709.000000		3561.344347		2759.91155		1.29038		
402.2100		19115.000000		4756.013306		1643.60776		2.89364		
402.8000		23018.000000		3064.402021		994.88258		3.08016		
403.4000		18582.000000		2247.879043		1744.59653		1.28848		
403.9900		21962.000000		3459.802113		2251.38232		1.53675		
404.5900		21481.000000		2823.502920		1684.70618		1.67596		
405.1800		21425.000000		3350.058961		2540.62380		1.31860		
405.7800		21088.000000		3769.830496		2772.94645		1.35950		
406.3700		22706.000000		3818.696286		2434.22705		1.56875		
406.9700		21837.000000		3603.387674		3389.35316		1.06315		
407.5600		22628.000000		3279.768475		2781.90272		1.17897		
408.1600		23616.000000		4085.796105		2570.43139		1.58954		
408.7500		25193.000000		3735.213349		3562.23520		1.04856		
409.3400		25296.000000		3973.721574		2265.21305		1.75424		
409.9400		28267.000000		3220.281147		3285.80214		0.98006		
410.5300		28405.000000		4562.931423		3821.77429		1.19393		
411.1300		31074.000000		4544.270888		3433.10762		1.32366		
411.7200		33172.000000		4153.964293		2786.74937		1.49061		
412.3200		35085.000000		5014.866230		4559.35028		1.09991		
412.9100		39358.000000		5309.325389		3466.95007		1.53141		
413.5000		43537.000000		5521.164686		4259.06512		1.29633		
414.1000		46288.000000		5355.962207		4930.57042		1.08628		
414.6900		50062.000000		7411.500136		5072.26268		1.46118		
415.2900		57051.000000		6321.900181		6028.45881		1.04868		
415.8800		64939.000000		6787.045055		7737.95848		0.87711		
416.4700		72178.000000		7494.989912		7682.93928		0.97554		
417.0700		81075.000000		9444.493696		8357.99595		1.13000		
417.6600		90310.000000		9621.146552		10185.03396		0.94464		
418.2600		103147.000000		9971.362051		9654.79881		1.03279		
418.8500		118899.000000		11908.270492		12792.48665		0.93088		
419.4400		132733.000000		12922.256818		13747.51557		0.93997		
420.0400		151643.000000		15374.828637		16346.17036		0.94058		
420.6300		173336.000000		14717.368208		17394.35600		0.84610		
421.2200		194053.000000		18038.469931		19805.70495		0.91077		
421.8200		223006.000000		20272.933050		22345.79616		0.90724		
422.4100		252315.000000		22468.911826		24255.05887		0.92636		
423.0100		287353.000000		26727.138829		29068.94737		0.91944		
423.6000		334583.000000		29641.877328		33203.00182		0.89275		
424.1900		374334.000000		31739.827919		35618.16019		0.89111		
424.7900		429862.000000		38426.100668		40505.70489		0.94866		
425.3800		477372.000000		43162.773484		47999.37665		0.89924		
425.9700		541841.000000		47765.392150		53467.33177		0.89336		
426.5700		611945.000000		54636.441953		60412.67260		0.90439		
427.1600		690334.000000		61665.376564		67808.44580		0.90941		
427.7500		778904.000000		69673.439826		76738.21146		0.90794		
428.3500		880351.000000		79995.130919		87647.35848		0.91269		
428.9400		976717.000000		88561.196169		96962.43465		0.91336		
429.5300		1096237.000000		98834.941978		106384.20309		0.92904		
430.1300		1209448.000000		111087.810905		117326.91125		0.94682		
430.7200		1376148.000000		124203.597916		134909.48711		0.92064		
431.3100		1524101.000000		137645.440591		149184.94472		0.92265		
431.9100		1703719.000000		156040.756392		166605.74227		0.93659		
432.5000		1874979.000000		173438.960205		182331.31387		0.95123		
433.0900		2050777.000000		191493.200730		197902.94776		0.96761		
433.6900		2330771.000000		218060.546151		227193.09144		0.95980		
434.2800		2546385.000000		239222.838941		248749.74337		0.96170		
434.8700		2842389.000000		270784.935764		275846.00874		0.98165		
435.4600		3100098.000000		296936.213994		300590.41662		0.98784		
436.0600		3380110.000000		324498.606197		328069.57097		0.98912		
436.6500		3682334.000000		355807.998558		357935.44949		0.99406		
437.2400		4159825.000000		406188.306930		402395.31892		1.00943		
437.8400		4489412.000000		437779.548141		435701.27895		1.00477		
438.4300		4970555.000000		492274.521368		481893.38515		1.02154		
439.0200		5392114.000000		539402.447758		519038.90661		1.03923		
439.6100		5997973.000000		604495.565015		583059.15391		1.03677		
440.2100		6446283.000000		653185.033577		627007.25161		1.04175		
440.8000		7029709.000000		713210.211260		678908.48392		1.05052		
441.3900		7657507.000000		783516.787994		742983.99849		1.05455		
441.9900		8316057.000000		856676.606818		810073.06477		1.05753		
442.5800		9361624.000000		973889.351801		904552.15352		1.07665		
443.1700		10062797.000000		1053245.175054		971620.55704		1.08401		
443.7600		10748206.000000		1129016.979265		1040332.45630		1.08525		
444.3600		11697726.000000		1241227.576370		1127548.61271		1.10082		
444.9500		12363172.000000		1322771.611576		1191009.44411		1.11063		
445.5400		13161213.000000		1406411.695694		1269523.89431		1.10783		
446.1300		14032959.000000		1517138.470024		1352085.80211		1.12207		
446.7300		14962732.000000		1614691.031335		1443571.33866		1.11854		
447.3200		16013531.000000		1735565.053396		1543087.28912		1.12474		
447.9100		16248398.000000		1775279.075410		1560257.55370		1.13781		
448.5000		17025588.000000		1867396.723624		1637608.76188		1.14032		
449.1000		17692475.000000		1944945.047512		1698853.89996		1.14486		
449.6900		18147090.000000		2002830.885834		1733859.31299		1.15513		
450.2800		18304851.000000		2031013.623142		1752016.78725		1.15924		
450.8700		18180587.000000		2025241.734302		1736726.08189		1.16613		
451.4600		18087411.000000		2032907.757509		1728989.57343		1.17578		
452.0600		18225314.000000		2050909.071906		1739072.14356		1.17931		
452.6500		17902191.000000		2028496.039028		1706152.35721		1.18893		
453.2400		17271619.000000		1964415.915054		1642986.08897		1.19564		
453.8300		16905135.000000		1934518.641183		1603379.57388		1.20653		
454.4200		16500529.000000		1903331.054746		1563773.31654		1.21714		
455.0200		15891490.000000		1843993.468616		1511385.59432		1.22007		
455.6100		15312208.000000		1787007.289250		1451419.84105		1.23121		
456.2000		14574762.000000		1708590.937575		1380651.77807		1.23752		
456.7900		13828724.000000		1627994.599161		1304801.18232		1.24770		
457.3800		13000644.000000		1543784.196855		1218558.71869		1.26689		
457.9800		12792934.000000		1522799.968946		1206069.19163		1.26261		
458.5700		12091409.000000		1440752.157219		1140495.13062		1.26327		
459.1600		11308908.000000		1358184.109257		1063647.87370		1.27691		
459.7500		11032164.000000		1331238.163699		1033228.84419		1.28843		
460.3400		10520199.000000		1273147.161531		990153.69825		1.28581		
460.9300		10072333.000000		1223424.447971		939099.89207		1.30276		
461.5300		9553193.000000		1162825.127724		885730.23642		1.31284		
462.1200		9282086.000000		1139573.961757		863109.46078		1.32031		
462.7100		8985801.000000		1104136.378139		838111.48132		1.31741		
463.3000		8679651.000000		1072479.608079		802768.29363		1.33598		
463.8900		8587079.000000		1065084.425780		792819.68490		1.34341		
464.4800		8313141.000000		1034903.957792		775413.62264		1.33465		
465.0700		8097416.000000		1010741.540050		748070.31462		1.35113		
465.6700		7930970.000000		994227.905765		732767.73490		1.35681		
466.2600		7745543.000000		974365.063113		716785.70671		1.35935		
466.8500		7637827.000000		966600.868093		702427.75094		1.37609		
467.4400		7413639.000000		941416.952970		681309.28946		1.38178		
468.0300		7077243.000000		902476.379411		646127.34383		1.39675		
468.6200		6947880.000000		885391.666260		638014.79176		1.38773		
469.2100		6557147.000000		838242.862147		598342.80407		1.40094		
469.8100		6527419.000000		840771.892949		592885.93477		1.41810		
470.4000		6335408.000000		815218.217105		579429.45384		1.40693		
470.9900		6160963.000000		795127.724309		562043.90630		1.41471		
471.5800		5931177.000000		773071.890615		538701.19144		1.43507		
472.1700		5758857.000000		751409.158559		522554.05365		1.43795		
472.7600		5641430.000000		737286.230409		509675.42735		1.44658		
473.3500		5458963.000000		716347.938468		495939.37182		1.44443		
473.9400		5272103.000000		691604.228297		476885.35909		1.45025		
474.5300		5137924.000000		681978.601993		465045.94999		1.46648		
475.1200		5009017.000000		663784.504561		451049.11496		1.47165		
475.7200		4923307.000000		654636.664165		441597.77039		1.48243		
476.3100		4845742.000000		646938.595523		435721.40557		1.48475		
476.9000		4755498.000000		639070.245256		426131.50516		1.49970		
477.4900		4643142.000000		623753.111419		416295.11153		1.49834		
478.0800		4644984.000000		624911.411908		412614.67786		1.51452		
478.6700		4570869.000000		618940.956184		410297.10444		1.50852		
479.2600		4528481.000000		615111.033734		406907.95774		1.51167		
479.8500		4529661.000000		620002.006380		403127.10870		1.53798		
480.4400		4502660.000000		617367.545653		405043.56585		1.52420		
481.0300		4505634.000000		619402.140548		400672.70120		1.54591		
481.6200		4542406.000000		626051.884254		401715.65038		1.55845		
482.2100		4522566.000000		626224.205617		400790.13277		1.56247		
482.8000		4484815.000000		622544.174201		395291.03632		1.57490		
483.3900		4510068.000000		628255.349921		398297.54317		1.57735		
483.9800		4526561.000000		633134.015409		399233.67635		1.58587		
484.5700		4547796.000000		636736.701326		403160.89925		1.57936		
485.1600		4572862.000000		640785.098016		402019.03903		1.59392		
485.7500		4545137.000000		638479.044166		399931.55461		1.59647		
486.3500		4619429.000000		654161.187359		404087.84245		1.61886		
486.9400		4630280.000000		657857.788742		406180.39616		1.61962		
487.5300		4668339.000000		665126.014238		410188.37943		1.62151		
488.1200		4758556.000000		681765.263209		414062.67898		1.64653		
488.7100		4812679.000000		687076.547309		417805.16687		1.64449		
489.3000		4879792.000000		701459.410673		425369.89312		1.64906		
489.8900		4918826.000000		708022.938498		431490.37773		1.64088		
490.4800		4971899.000000		721535.368107		429449.02881		1.68014		
491.0700		5110519.000000		745368.898213		444469.78816		1.67698		
491.6600		5195991.000000		757081.540918		452624.35127		1.67265		
492.2500		5295190.000000		777097.800484		455099.11927		1.70754		
492.8400		5409737.000000		794887.182997		465620.96073		1.70716		
493.4300		5560236.000000		814187.124031		480219.41351		1.69545		
494.0200		5718999.000000		845471.404431		494679.30640		1.70913		
494.6100		5858098.000000		867595.651139		509232.04130		1.70373		
495.2000		6014444.000000		897046.167426		519867.96407		1.72553		
495.7900		6249674.000000		933063.709683		539664.22578		1.72897		
496.3700		6469620.000000		967704.994869		558422.62074		1.73293		
496.9600		6641844.000000		998599.626012		569803.55224		1.75253		
497.5500		6851853.000000		1036828.178812		587404.10115		1.76510		
498.1400		7068319.000000		1072930.419993		608588.99932		1.76298		
498.7300		7335402.000000		1114362.434901		629128.66986		1.77128		
499.3200		7604084.000000		1161839.175214		651760.08870		1.78262		
499.9100		7776262.000000		1187888.671254		667081.20813		1.78073		
500.5000		8102405.000000		1243058.709286		692532.84363		1.79495		
501.0900		8340541.000000		1284700.740957		714243.02030		1.79869		
501.6800		8569012.000000		1324820.723113		732047.69663		1.80975		
502.2700		8844183.000000		1373318.467068		756269.83570		1.81591		
502.8600		9091281.000000		1414573.002693		772897.57986		1.83022		
503.4500		9370668.000000		1466660.875484		794768.63550		1.84539		
504.0400		9641570.000000		1513064.724857		818025.73848		1.84965		
504.6300		9928559.000000		1562170.261524		843068.14354		1.85296		
505.2200		10180892.000000		1607738.940710		860844.94472		1.86763		
505.8100		10472472.000000		1657658.584411		887193.86977		1.86843		
506.4000		10721078.000000		1703177.594542		904580.93953		1.88284		
506.9800		10976591.000000		1749304.546519		925114.26269		1.89091		
507.5700		11273728.000000		1800793.022061		954754.28509		1.88613		
508.1600		11522196.000000		1845145.941662		970594.58986		1.90105		
508.7500		11826622.000000		1901940.016885		995506.48608		1.91052		
509.3400		12136254.000000		1956852.910239		1019332.58398		1.91974		
509.9300		12395801.000000		2001693.039634		1039621.21839		1.92541		
510.5200		12694693.000000		2055917.305843		1062667.86500		1.93468		
511.1100		12973624.000000		2105892.968081		1089374.90020		1.93312		
511.7000		13260242.000000		2151521.118888		1114466.65571		1.93054		
512.2900		13547736.000000		2206354.508212		1134076.71226		1.94551		
512.8700		13838957.000000		2265741.398948		1157050.25157		1.95820		
513.4600		14083170.000000		2310157.904120		1174944.98665		1.96618		
514.0500		14431997.000000		2369483.921181		1204576.74138		1.96707		
514.6400		14606285.000000		2402955.855879		1213198.20511		1.98068		
515.2300		14955110.000000		2472683.764961		1239427.56005		1.99502		
515.8200		15097061.000000		2495399.297341		1257274.53951		1.98477		
516.4100		15367994.000000		2543481.721428		1272793.06651		1.99835		
516.9900		15388830.000000		2557589.080649		1272273.46386		2.01025		
517.5800		15447546.000000		2572221.880055		1276468.03972		2.01511		
518.1700		15649849.000000		2612198.558845		1290622.70914		2.02398		
518.7600		15909484.000000		2655152.898367		1317077.81147		2.01594		
519.3500		16189264.000000		2708933.074846		1333824.66497		2.03095		
519.9400		16393415.000000		2756860.018025		1348321.00573		2.04466		
520.5300		16620235.000000		2796368.855282		1357467.17690		2.05999		
521.1100		16975616.000000		2859435.795493		1388916.25846		2.05875		
521.7000		17116468.000000		2895979.654474		1400239.49425		2.06820		
522.2900		17574854.000000		2975720.946994		1426470.68084		2.08607		
522.8800		17849226.000000		3025934.604724		1446925.14988		2.09129		
523.4700		18318139.000000		3108296.528281		1492833.41118		2.08215		
524.0600		18592581.000000		3167164.568479		1511223.51561		2.09576		
524.6400		18931893.000000		3228256.106227		1542447.62095		2.09294		
525.2300		19125970.000000		3269452.078588		1548614.23274		2.11121		
525.8200		19465403.000000		3328042.562984		1578225.26112		2.10872		
526.4100		19708591.000000		3380176.098594		1585974.00862		2.13129		
527.0000		19914017.000000		3422899.013930		1604578.90871		2.13321		
527.5800		20038033.000000		3443935.765866		1612093.92471		2.13631		
528.1700		20289618.000000		3499189.079016		1634960.47054		2.14023		
528.7600		20483289.000000		3546871.634087		1643756.03311		2.15778		
529.3500		20506941.000000		3548460.165369		1638653.14005		2.16547		
529.9400		20711575.000000		3590686.971254		1656161.20788		2.16808		
530.5200		20784661.000000		3610132.405211		1666485.82461		2.16631		
531.1100		20897444.000000		3635619.623152		1668366.80489		2.17915		
531.7000		21072288.000000		3671722.872633		1678103.15925		2.18802		
532.2900		21143323.000000		3695152.020548		1678343.90940		2.20167		
532.8700		21162848.000000		3703772.342808		1685039.78413		2.19803		
533.4600		21142894.000000		3714329.609023		1671870.53893		2.22166		
534.0500		21264076.000000		3732068.950237		1691087.16423		2.20691		
534.6400		21306552.000000		3750972.546208		1691532.90005		2.21750		
535.2200		21370629.000000		3776926.807801		1677371.13349		2.25169		
535.8100		21377853.000000		3779548.015912		1679681.81097		2.25016		
536.4000		21392191.000000		3796256.885977		1675134.37044		2.26624		
536.9900		21510748.000000		3815258.998668		1687887.09919		2.26038		
537.5700		21599585.000000		3838333.169106		1694528.79931		2.26513		
538.1600		21609002.000000		3846173.531878		1693878.03988		2.27063		
538.7500		21501534.000000		3838752.778047		1682335.22704		2.28180		
539.3400		21388599.000000		3823530.065261		1668746.45157		2.29126		
539.9200		21438173.000000		3838084.947625		1672317.01927		2.29507		
540.5100		21462405.000000		3853263.646916		1668877.12370		2.30890		
541.1000		21369891.000000		3849883.570099		1656184.58207		2.32455		
541.6800		21330021.000000		3848424.749858		1647202.25613		2.33634		
542.2700		21331570.000000		3849397.970332		1651221.37888		2.33124		
542.8600		21239514.000000		3832190.454631		1642796.19107		2.33272		
543.4500		21223898.000000		3840935.964365		1634662.66873		2.34968		
544.0300		21079272.000000		3819905.088655		1619988.70231		2.35798		
544.6200		21018911.000000		3818902.045562		1609610.80640		2.37256		
545.2100		21010327.000000		3820290.783315		1614845.74432		2.36573		
545.7900		20946992.000000		3811657.174273		1597769.95695		2.38561		
546.3800		20827499.000000		3792488.301412		1597926.98502		2.37338		
546.9700		20720027.000000		3801179.063777		1583679.02180		2.40022		
547.5500		20693077.000000		3802551.893787		1584624.55458		2.39965		
548.1400		20652193.000000		3809524.080488		1576854.04589		2.41590		
548.7300		20509462.000000		3786847.597946		1565371.08472		2.41914		
549.3200		20664007.000000		3820823.655124		1571960.18915		2.43061		
549.9000		20557080.000000		3804038.616155		1565720.16013		2.42958		
550.4900		20401958.000000		3788541.340675		1545880.96827		2.45073		
551.0800		20452962.000000		3809408.762961		1542078.51689		2.47031		
551.6600		20466650.000000		3815494.629682		1540999.30871		2.47599		
552.2500		20441387.000000		3816515.588463		1544450.01268		2.47112		
552.8300		20357191.000000		3813370.821418		1528545.41574		2.49477		
553.4200		20444392.000000		3832993.016762		1539288.03962		2.49011		
554.0100		20235816.000000		3805027.057682		1520361.92043		2.50271		
554.5900		20210791.000000		3806201.662454		1515189.80066		2.51203		
555.1800		20146911.000000		3800663.302087		1506877.45959		2.52221		
555.7700		20222408.000000		3827714.043827		1511794.29857		2.53190		
556.3500		20117435.000000		3810299.536653		1506130.34803		2.52986		
556.9400		20064489.000000		3808786.832423		1490970.67682		2.55457		
557.5300		20069183.000000		3812364.393147		1496663.68169		2.54724		
558.1100		19917504.000000		3789943.265044		1490794.14759		2.54223		
558.7000		19862838.000000		3788149.612111		1466621.91959		2.58291		
559.2800		19780547.000000		3776120.006000		1467311.38441		2.57350		
559.8700		19822914.000000		3789975.919046		1468191.15262		2.58139		
560.4600		19786980.000000		3788205.333732		1468631.08505		2.57941		
561.0400		19689578.000000		3774104.277061		1456088.38273		2.59195		
561.6300		19653148.000000		3776467.404276		1449348.41783		2.60563		
562.2100		19606068.000000		3774514.450039		1446395.73745		2.60960		
562.8000		19514692.000000		3767436.620173		1436869.71909		2.62198		
563.3900		19533164.000000		3772547.796746		1435881.75594		2.62734		
563.9700		19447944.000000		3764336.520186		1423574.84875		2.64428		
564.5600		19376538.000000		3755249.186529		1417800.30621		2.64864		
565.1400		19343566.000000		3763697.533279		1406788.81040		2.67538		
565.7300		19236373.000000		3740994.957772		1392636.65940		2.68627		
566.3200		19157927.000000		3733778.410281		1394208.46141		2.67806		
566.9000		19103237.000000		3729800.994357		1388192.73805		2.68680		
567.4900		19129163.000000		3736912.330527		1388433.11131		2.69146		
568.0700		19004929.000000		3715298.746111		1381484.37946		2.68935		
568.6600		18899933.000000		3710714.531947		1366250.16330		2.71598		
569.2400		18896042.000000		3708929.458203		1366537.19879		2.71411		
569.8300		18894871.000000		3719792.838451		1358298.01998		2.73857		
570.4100		18739613.000000		3697806.652049		1339491.25686		2.76061		
571.0000		18688404.000000		3684466.020552		1343871.30784		2.74168		
571.5900		18516527.000000		3667577.739999		1326638.56232		2.76456		
572.1700		18411117.000000		3642496.956898		1315011.37877		2.76994		
572.7600		18356670.000000		3645244.980527		1313876.74429		2.77442		
573.3400		18270021.000000		3631923.743001		1303002.05410		2.78735		
573.9300		18064643.000000		3597852.469913		1284473.17368		2.80103		
574.5100		18059731.000000		3596324.623419		1288277.44586		2.79158		
575.1000		17809474.000000		3559009.771917		1258384.84868		2.82824		
575.6800		17720397.000000		3542102.398659		1256885.78796		2.81816		
576.2700		17646604.000000		3528547.836963		1249371.25545		2.82426		
576.8500		17491451.000000		3510391.265668		1234837.22785		2.84280		
577.4400		17370222.000000		3480823.890917		1228288.83491		2.83388		
578.0200		17241655.000000		3466777.637258		1215742.12177		2.85157		
578.6100		17057603.000000		3429549.678511		1198879.09674		2.86063		
579.1900		16944188.000000		3414624.210534		1189288.49571		2.87115		
579.7800		16714313.000000		3370287.353580		1174023.55546		2.87072		
580.3600		16533965.000000		3342717.825780		1155508.94816		2.89285		
580.9500		16463202.000000		3326309.955461		1150566.14831		2.89102		
581.5300		16324245.000000		3309258.410613		1141447.00699		2.89918		
582.1200		16137999.000000		3276822.974160		1123963.00999		2.91542		
582.7000		15994453.000000		3248785.191955		1115730.17382		2.91180		
583.2900		15931544.000000		3237247.548792		1107315.42278		2.92351		
583.8700		15735311.000000		3202558.728870		1089831.53050		2.93858		
584.4600		15493838.000000		3162670.178757		1071081.35112		2.95278		
585.0400		15424367.000000		3151315.711717		1067178.51280		2.95294		
585.6200		15258712.000000		3118682.175309		1055738.13637		2.95403		
586.2100		15068163.000000		3091182.056080		1038277.68710		2.97722		
586.7900		14957816.000000		3067047.394282		1028759.89705		2.98131		
587.3800		14790222.000000		3035369.923553		1012655.40948		2.99744		
587.9600		14662985.000000		3016305.788983		1006520.29043		2.99677		
588.5500		14498387.000000		2981884.859292		988207.04488		3.01747		
589.1300		14306697.000000		2952782.723833		971220.00069		3.04028		
589.7200		14114382.000000		2917213.058379		965545.25084		3.02131		
590.3000		13998207.000000		2890401.999421		952823.90418		3.03351		
590.8800		13795008.000000		2858418.879583		933869.95447		3.06083		
591.4700		13695598.000000		2838740.424591		935060.96732		3.03589		
592.0500		13518693.000000		2806448.148211		916178.14595		3.06321		
592.6400		13327692.000000		2766811.658324		906172.76427		3.05329		
593.2200		13158025.000000		2733853.734989		885840.77841		3.08617		
593.8100		13084748.000000		2725972.399393		882506.80274		3.08890		
594.3900		12869141.000000		2677167.797823		866825.69563		3.08847		
594.9700		12706510.000000		2651830.504058		849176.80765		3.12282		
595.5600		12521822.000000		2615319.767056		837181.19090		3.12396		
596.1400		12475691.000000		2607580.934569		837035.91639		3.11526		
596.7200		12217719.000000		2555554.637020		817190.35147		3.12725		
597.3100		12127141.000000		2540414.139721		807297.06843		3.14681		
597.8900		12005998.000000		2523463.883935		800026.40310		3.15423		
598.4800		11873275.000000		2487837.536992		789273.13097		3.15206		
599.0600		11719504.000000		2462243.295391		776533.72185		3.17081		
599.6400		11606525.000000		2437708.991812		773810.30966		3.15027		
600.2300		11493213.000000		2419126.031982		758554.02459		3.18913		
600.8100		11295082.000000		2379654.289592		743003.81208		3.20275		
601.3900		11159324.000000		2353048.555842		734828.38386		3.20217		
601.9800		11030373.000000		2331612.205707		722279.83737		3.22813		
602.5600		10939916.000000		2312476.153990		723334.61333		3.19697		
603.1500		10775062.000000		2275843.952878		704556.94450		3.23018		
603.7300		10678870.000000		2261563.260194		699936.04458		3.23110		
604.3100		10547418.000000		2237640.910941		691612.23079		3.23540		
604.9000		10384529.000000		2205898.912554		675348.90876		3.26631		
605.4800		10287118.000000		2185092.687231		667033.09045		3.27584		
606.0600		10119858.000000		2152330.093318		656041.56599		3.28078		
606.6500		9950339.000000		2120080.673549		643173.71287		3.29628		
607.2300		9876628.000000		2100271.950926		639101.77359		3.28629		
607.8100		9624945.000000		2051530.389573		622419.21343		3.29606		
608.4000		9491473.000000		2025483.863893		610936.29125		3.31538		
608.9800		9336242.000000		1992659.629517		596931.89663		3.33817		
609.5600		9094812.000000		1941207.644592		585704.29121		3.31431		
610.1400		8919305.000000		1902983.337564		570551.15532		3.33534		
610.7300		8755906.000000		1863086.423483		556245.49015		3.34940		
611.3100		8589984.000000		1819599.736368		541244.88440		3.36188		
611.8900		8357742.000000		1778856.094275		527940.89559		3.36942		
612.4800		8153125.000000		1740708.511775		515869.08464		3.37432		
613.0600		8015211.000000		1712197.490761		509775.57514		3.35873		
613.6400		7791624.000000		1664693.750927		497486.03884		3.34621		
614.2300		7724010.000000		1652177.046983		487547.44325		3.38875		
614.8100		7614878.000000		1631579.240144		482758.47415		3.37970		
615.3900		7536473.000000		1616920.615403		475805.89930		3.39828		
615.9700		7429486.000000		1594139.709951		466508.17944		3.41717		
616.5600		7292734.000000		1564570.451310		459849.23882		3.40236		
617.1400		7152934.000000		1536724.802440		447677.69240		3.43266		
617.7200		7326114.000000		1576682.829838		458448.86598		3.43917		
618.3000		7604034.000000		1634533.840885		474240.76619		3.44663		
618.8900		7643655.000000		1648009.182973		478108.25124		3.44694		
619.4700		7525008.000000		1621804.150377		466869.35871		3.47379		
620.0500		7515895.000000		1620896.763636		462760.45170		3.50267		
620.6300		7447229.000000		1602343.812970		458734.65846		3.49296		
621.2200		7314449.000000		1577609.532431		456139.71475		3.45861		
621.8000		7277950.000000		1569618.293292		449343.67984		3.49314		
622.3800		7158542.000000		1547110.812786		445747.09443		3.47083		
622.9600		7054460.000000		1525313.061082		433263.92459		3.52052		
623.5500		6957947.000000		1506208.001247		427012.25798		3.52732		
624.1300		6879240.000000		1487355.786850		423633.03203		3.51095		
624.7100		6778526.000000		1471173.737919		413874.57670		3.55464		
625.2900		6670349.000000		1442720.925505		406039.57266		3.55315		
625.8700		6603776.000000		1434621.020840		402012.06021		3.56860		
626.4600		6476956.000000		1403176.875680		394152.75800		3.55998		
627.0400		6403230.000000		1391361.738469		390638.48802		3.56176		
627.6200		6304731.000000		1373297.836167		380505.16939		3.60914		
628.2000		6210184.000000		1351726.276179		374156.09792		3.61273		
628.7800		6124498.000000		1332053.507077		370727.08785		3.59308		
629.3700		6029111.000000		1313714.862585		362482.76878		3.62421		
629.9500		5935901.000000		1292137.891145		358442.17358		3.60487		
630.5300		5842763.000000		1271165.808067		350072.20702		3.63115		
631.1100		5720846.000000		1246229.362950		343103.61897		3.63222		
631.6900		5650232.000000		1231982.840025		332754.90742		3.70237		
632.2800		5573950.000000		1217375.987425		335134.97082		3.63249		
632.8600		5446146.000000		1185655.609318		323147.91365		3.66908		
633.4400		5379052.000000		1176983.371250		317832.77954		3.70315		
634.0200		5273476.000000		1152505.794489		312927.05368		3.68299		
634.6000		5176139.000000		1133252.902969		306363.88879		3.69904		
635.1800		5112872.000000		1119148.454946		302033.95739		3.70537		
635.7600		5023613.000000		1096253.820327		296945.95390		3.69176		
636.3500		4928030.000000		1079978.762147		287520.37235		3.75618		
636.9300		4828846.000000		1057141.349424		284043.54151		3.72176		
637.5100		4744801.000000		1037840.042947		276552.82674		3.75277		
638.0900		4679058.000000		1026538.095974		272777.16641		3.76328		
638.6700		4595179.000000		1006959.957325		266353.68771		3.78054		
639.2500		4501100.000000		986653.234274		263053.52943		3.75077		
639.8300		4409134.000000		967804.472729		258116.50581		3.74949		
640.4200		4345183.000000		957431.136093		248860.60099		3.84726		
641.0000		4258217.000000		935944.018831		243837.37794		3.83839		
641.5800		4183576.000000		920052.679539		240010.52032		3.83338		
642.1600		4103825.000000		903237.001782		236863.20271		3.81333		
642.7400		4033577.000000		889054.673570		234619.38186		3.78935		
643.3200		3960304.000000		873145.968665		223415.22966		3.90818		
643.9000		3862839.000000		849551.142488		220403.94241		3.85452		
644.4800		3792468.000000		838001.917649		214624.07331		3.90451		
645.0600		3733271.000000		825083.548647		210676.78338		3.91635		
645.6400		3656679.000000		808932.933312		207781.13871		3.89320		
646.2200		3621684.000000		801365.610174		207222.53605		3.86717		
646.8100		3514559.000000		779033.066142		199351.13829		3.90784		
647.3900		3460033.000000		766231.275004		197681.16958		3.87610		
647.9700		3392449.000000		753086.236403		191211.95248		3.93849		
648.5500		3346469.000000		744087.651812		189242.50033		3.93193		
649.1300		3268128.000000		727534.229178		184136.30515		3.95106		
649.7100		3215812.000000		712903.263764		181362.12397		3.93083		
650.2900		3181479.000000		705672.543444		178136.56954		3.96141		
650.8700		3131184.000000		696640.035326		171678.32911		4.05782		
651.4500		3087748.000000		687283.394736		170459.38174		4.03195		
652.0300		3050597.000000		678635.815736		171888.10108		3.94813		
652.6100		3029199.000000		674105.249216		170958.00824		3.94310		
653.1900		2988192.000000		664541.228275		165279.34530		4.02072		
653.7700		2953818.000000		656427.465709		162350.76234		4.04327		
654.3500		2935006.000000		654401.442254		162573.87273		4.02526		
654.9300		2898685.000000		648874.820574		161378.76425		4.02082		
655.5100		2864870.000000		638224.234159		157286.78262		4.05771		
656.0900		2831305.000000		632847.757488		155768.00483		4.06276		
656.6700		2775172.000000		619575.428745		153520.26000		4.03579		
657.2500		2728250.000000		608445.731613		151256.46126		4.02261		
657.8300		2668251.000000		597124.223471		146906.26683		4.06466		
658.4100		2610411.000000		582007.137396		143070.81939		4.06797		
658.9900		2588298.000000		577519.399579		140448.57777		4.11196		
659.5700		2528585.000000		564907.170407		136135.87891		4.14958		
660.1500		2423320.000000		541481.073144		131248.70630		4.12561		
660.7300		2275856.000000		509449.296779		121714.14885		4.18562		
661.3100		2194576.000000		489366.047194		118006.24541		4.14695		
661.8900		2173596.000000		488391.056558		115781.79673		4.21820		
662.4700		2096939.000000		468008.896885		113998.79662		4.10538		
663.0500		2066559.000000		464414.863303		113546.75647		4.09008		
663.6300		2015278.000000		450695.703612		107806.44233		4.18060		
664.2100		1980475.000000		446884.502949		105121.91799		4.25111		
664.7900		1946324.000000		435434.115462		104204.48465		4.17865		
665.3700		1913438.000000		431232.386048		103065.63894		4.18406		
665.9500		1881426.000000		422942.220689		99025.36996		4.27105		
666.5300		1844368.000000		413325.730019		97720.36233		4.22968		
667.1100		1807841.000000		406663.048634		93997.51066		4.32632		
667.6900		1771150.000000		397507.386516		92518.24841		4.29653		
668.2700		1753002.000000		394377.614143		90933.88122		4.33697		
668.8500		1712084.000000		386374.504377		87798.01143		4.40072		
669.4300		1690837.000000		379815.954455		89468.42713		4.24525		
670.0100		1659261.000000		375801.901821		87957.00736		4.27256		
670.5900		1628930.000000		367613.293524		84988.26179		4.32546		
671.1600		1603376.000000		362496.454737		84100.84335		4.31026		
671.7400		1572976.000000		357321.724360		80488.67115		4.43940		
672.3200		1542365.000000		347731.522249		80150.06856		4.33851		
672.9000		1521531.000000		344280.011139		79119.89248		4.35137		
673.4800		1490769.000000		338982.134954		76532.17066		4.42928		
674.0600		1462967.000000		330866.022982		75502.10161		4.38221		
674.6400		1442465.000000		325200.140306		75191.39751		4.32496		
675.2200		1412877.000000		319000.884706		73895.50278		4.31692		
675.8000		1378010.000000		311257.928905		70674.45130		4.40411		
676.3800		1366274.000000		310719.532016		70874.69789		4.38407		
676.9500		1338889.000000		302669.351498		69459.87730		4.35747		
677.5300		1313207.000000		297300.102747		66423.37217		4.47584		
678.1100		1289887.000000		291395.079988		67709.92999		4.30358		
678.6900		1272145.000000		288611.616547		63328.18088		4.55740		
679.2700		1246719.000000		283585.418230		62620.74574		4.52862		
679.8500		1226417.000000		276746.909112		62798.98077		4.40687		
680.4300		1199615.000000		272263.831650		61058.98595		4.45903		
681.0100		1183522.000000		268905.235161		59603.46989		4.51157		
681.5800		1158664.000000		261778.968332		59756.18952		4.38078		
682.1600		1139129.000000		258049.834290		59820.66476		4.31372		
682.7400		1123092.000000		254038.593816		56392.47743		4.50483		
683.3200		1099368.000000		249181.923491		54343.64308		4.58530		
683.9000		1088796.000000		246126.042208		55350.98909		4.44664		
684.4800		1062855.000000		239695.037232		54151.37248		4.42639		
685.0500		1045548.000000		238270.645681		53709.04718		4.43632		
685.6300		1026371.000000		233996.032259		50844.36687		4.60220		
686.2100		1004482.000000		228359.053653		51152.99090		4.46424		
686.7900		990170.000000		224183.441511		50819.75140		4.41134		
687.3700		971315.000000		220017.514766		48793.71028		4.50914		
687.9500		953720.000000		215013.246187		48248.47200		4.45637		
688.5200		935662.000000		211820.216229		46098.32914		4.59497		
689.1000		916681.000000		208516.533015		44293.06426		4.70766		
689.6800		896557.000000		205357.153793		43094.44963		4.76528		
690.2600		874517.000000		198662.100631		43391.99641		4.57831		
690.8400		859344.000000		195533.467112		41739.37084		4.68463		
691.4100		843366.000000		191873.867326		38861.61739		4.93736		
691.9900		822419.000000		185740.554448		40193.52561		4.62116		
692.5700		810604.000000		185340.614985		39914.53729		4.64344		
693.1500		786441.000000		179312.277846		37878.49991		4.73388		
693.7200		774337.000000		176235.379022		37805.01574		4.66169		
694.3000		750646.000000		172594.935104		36446.73768		4.73554		
694.8800		743020.000000		169057.233207		37924.13200		4.45777		
695.4600		719965.000000		163752.956898		34874.43095		4.69550		
696.0300		705654.000000		161393.281300		35999.36951		4.48323		
696.6100		690796.000000		156951.357420		33255.33085		4.71958		
697.1900		674363.000000		152786.168293		32586.11623		4.68869		
697.7700		659517.000000		151733.400841		30228.13291		5.01961		
698.3400		647099.000000		146813.505863		31096.72986		4.72119		
698.9200		631018.000000		143387.122495		31301.90249		4.58078		
699.5000		609730.000000		138890.874350		29024.79986		4.78525		
700.0800		599041.000000		136725.215852		28811.99670		4.74543		
700.6500		588186.000000		133718.577679		28199.96637		4.74180		
701.2300		573301.000000		130579.698995		27760.58121		4.70378		
701.8100		560352.000000		128210.061675		25797.45038		4.96987		
702.3900		547054.000000		125400.460269		26442.42797		4.74240		
702.9600		537383.000000		122400.475370		24987.83412		4.89840		
703.5400		524938.000000		119794.330782		25205.53867		4.75270		
704.1200		510447.000000		116034.355320		26153.33434		4.43669		
704.6900		502155.000000		114061.961511		24453.76358		4.66439		
705.2700		492108.000000		112332.242320		22585.25214		4.97370		
705.8500		478310.000000		107989.746505		22155.70912		4.87413		
706.4200		465982.000000		106322.375662		22427.95645		4.74062		
707.0000		462403.000000		104268.437373		21038.37850		4.95611		
707.5800		452353.000000		101820.460143		21296.47446		4.78109		
708.1500		436255.000000		99579.884357		19949.09277		4.99170		
708.7300		430714.000000		97808.747760		19753.59666		4.95144		
709.3100		418875.000000		95300.615747		20509.49587		4.64666		
709.8800		410276.000000		93418.922437		19295.72963		4.84143		
710.4600		396388.000000		90914.026868		18415.66279		4.93678		
711.0400		388701.000000		89893.287373		19729.09974		4.55638		
711.6100		382996.000000		87490.159190		17839.97020		4.90417		
712.1900		372913.000000		84537.202947		18242.78432		4.63401		
712.7700		364957.000000		83169.675222		17761.01008		4.68271		
713.3400		354356.000000		81367.682461		17131.97347		4.74946		
713.9200		344232.000000		80285.481303		16949.45750		4.73676		
714.5000		338557.000000		78755.722961		17810.87812		4.42178		
715.0700		334097.000000		77584.762483		14839.56677		5.22824		
715.6500		323474.000000		74272.302373		15697.21952		4.73156		
716.2200		316263.000000		72541.636364		13994.21303		5.18369		
716.8000		307915.000000		71453.118975		14729.89408		4.85089		
717.3800		301821.000000		70734.074246		14942.61377		4.73371		
717.9500		296152.000000		69054.480809		14070.97763		4.90758		
718.5300		285596.000000		66975.934259		11730.41898		5.70959		
719.1100		282717.000000		65837.517126		13665.55089		4.81777		
719.6800		271596.000000		63236.011542		12643.03573		5.00165		
720.2600		266895.000000		62598.312388		12844.53089		4.87354		
720.8300		262248.000000		60969.252854		11609.85424		5.25151		
721.4100		256473.000000		60650.068044		12041.56492		5.03673		
721.9800		249625.000000		57911.919491		11063.31385		5.23459		
722.5600		245649.000000		57083.413786		11206.62547		5.09372		
723.1400		238073.000000		57070.498958		11757.60637		4.85392		
723.7100		235978.000000		54760.906807		10612.40634		5.16008		
724.2900		229429.000000		54670.837541		12121.41973		4.51027		
724.8600		222661.000000		53209.789402		11218.22687		4.74316		
725.4400		219017.000000		51442.568323		11223.73380		4.58337		
726.0100		211532.000000		49689.499539		11217.33437		4.42971		
726.5900		206452.000000		48637.589784		11095.44527		4.38356		
727.1700		207320.000000		48790.880604		10461.11304		4.66402		
727.7400		198408.000000		47934.465714		9272.26447		5.16966		
728.3200		193948.000000		46727.012447		9716.08765		4.80924		
728.8900		191751.000000		46027.649316		9980.55527		4.61173		
729.4700		186688.000000		44628.825626		8177.92185		5.45723		
730.0400		181620.000000		43104.412624		9384.74491		4.59303		
730.6200		177363.000000		43069.900709		8154.39546		5.28180		
731.1900		172988.000000		42217.148230		7910.85893		5.33661		
731.7700		167574.000000		39342.669453		8282.82841		4.74991		
732.3400		162193.000000		40027.227518		8122.99901		4.92764		
732.9200		160861.000000		37189.349426		8316.84608		4.47157		
733.4900		157162.000000		38165.832269		8216.47343		4.64504		
734.0700		153481.000000		36437.282899		7816.44788		4.66162		
734.6400		151037.000000		37197.146999		7435.98735		5.00231		
735.2200		147665.000000		35894.918809		6923.97643		5.18415		
735.7900		142203.000000		35168.365132		7948.88817		4.42431		
736.3700		140879.000000		34627.202626		7161.94574		4.83489		
736.9400		136541.000000		33652.500260		6272.11683		5.36541		
737.5200		134732.000000		32698.897271		7897.23384		4.14055		
738.0900		131084.000000		32740.086611		7407.39357		4.41992		
738.6700		129761.000000		32566.722229		6562.98061		4.96218		
739.2400		125542.000000		32641.116699		6215.32882		5.25171		
739.8200		122791.000000		30629.744594		6712.62954		4.56300		
740.3900		121965.000000		30395.754067		6096.11860		4.98608		
740.9600		118816.000000		29465.727727		6264.26860		4.70378		
741.5400		115758.000000		28969.454510		6530.29343		4.43616		
742.1100		113346.000000		27970.013183		5355.57792		5.22259		
742.6900		111835.000000		27641.494843		6581.09308		4.20014		
743.2600		110440.000000		26824.750272		6917.91659		3.87758		
743.8400		106507.000000		26800.250537		5729.23863		4.67780		
744.4100		105568.000000		27581.045673		5915.27396		4.66268		
744.9800		103083.000000		26813.390552		5328.05662		5.03249		
745.5600		100663.000000		25148.772866		6333.89912		3.97050		
746.1300		97437.000000		26464.949121		6279.54846		4.21447		
746.7100		95692.000000		24611.865563		5557.27270		4.42877		
747.2800		93759.000000		24228.702502		5321.38975		4.55308		
747.8600		93861.000000		23675.723669		4748.89520		4.98552		
748.4300		91267.000000		22045.673014		4724.54566		4.66620		
749.0000		89106.000000		22715.751083		5538.21928		4.10163		
749.5800		87457.000000		22896.851273		6340.57393		3.61116		
750.1500		86205.000000		21764.548083		5272.83316		4.12768		
750.7200		83846.000000		22736.198649		5269.54193		4.31464		
751.3000		81480.000000		20658.896373		4257.14889		4.85275		
751.8700		80037.000000		21493.424738		5005.64129		4.29384		
752.4500		79253.000000		20715.013930		3169.41306		6.53591		
753.0200		76739.000000		20741.685888		4234.19218		4.89862		
753.5900		75222.000000		20016.858765		4327.05681		4.62598		
754.1700		72666.000000		20266.962968		5805.34861		3.49108		
754.7400		71607.000000		19284.039885		5024.45100		3.83804		
755.3100		70904.000000		19523.096737		3951.01567		4.94129		
755.8900		72168.000000		18610.878065		5155.58123		3.60985		
756.4600		65840.000000		18061.882014		4483.36308		4.02865		
757.0300		66909.000000		18571.273781		3107.58575		5.97611		
757.6100		65718.000000		18660.964032		4013.92618		4.64906		
758.1800		62806.000000		17947.640197		4082.38977		4.39636		
758.7500		60930.000000		16723.878567		3367.59659		4.96612		
759.3300		60107.000000		16962.566108		2473.79813		6.85689		
759.9000		59105.000000		15478.397254		4331.93906		3.57309		
760.4700		59598.000000		15041.392021		3346.64139		4.49447		
761.0500		56400.000000		16135.912657		2271.32049		7.10420		
761.6200		55831.000000		15606.059732		4466.69175		3.49387		
762.1900		55001.000000		14635.329770		2953.99322		4.95442		
762.7700		53012.000000		14043.575689		2845.94800		4.93459		
763.3400		52777.000000		15231.747657		3201.91756		4.75707		
763.9100		51013.000000		14796.055885		3858.64874		3.83452		
764.4800		50291.000000		14229.002779		3420.63969		4.15975		
765.0600		49609.000000		14070.813839		3397.18584		4.14190		
765.6300		45836.000000		14663.699520		2455.88121		5.97085		
766.2000		46951.000000		13793.914946		3958.43531		3.48469		
766.7800		44042.000000		12668.589117		2704.66721		4.68397		
767.3500		42136.000000		12466.782972		2968.99270		4.19899		
767.9200		41943.000000		12894.756294		1962.13359		6.57180		
768.4900		42686.000000		13064.967972		3509.59809		3.72264		
769.0700		42122.000000		12117.075730		2546.09155		4.75909		
769.6400		40227.000000		12448.195135		3454.13315		3.60386		
770.2100		38765.000000		12237.869815		3648.48369		3.35423		
770.7800		39144.000000		12223.911657		2905.17408		4.20763		
771.3600		37174.000000		12674.334372		2944.53354		4.30436		
771.9300		35911.000000		10021.418375		2884.83074		3.47383		
772.5000		35610.000000		11330.557321		2728.63670		4.15246		
773.0700		35522.000000		11551.153642		1865.30623		6.19263		
773.6400		33228.000000		10600.380556		3072.91661		3.44962		
774.2200		33244.000000		9958.670475		3982.53094		2.50059		
774.7900		32146.000000		10365.414282		2058.00229		5.03664		
775.3600		29724.000000		10070.441139		2281.30659		4.41433		
775.9300		30581.000000		11192.912637		2482.90699		4.50799		
776.5000		29844.000000		10473.142366		2494.29967		4.19883		
777.0800		28876.000000		9418.898145		2286.96380		4.11852		
777.6500		28688.000000		9597.470125		1781.94049		5.38597		
778.2200		27816.000000		9688.136908		3894.70994		2.48751		
778.7900		26340.000000		9884.980194		2836.33847		3.48512		
779.3600		26822.000000		10026.229987		2256.69636		4.44288		
779.9400		24884.000000		8772.190284		2861.72198		3.06535		
780.5100		23669.000000		9827.931261		1940.24967		5.06529		
781.0800		25594.000000		7793.680972		1390.75908		5.60390		
781.6500		24193.000000		9472.700746		2914.00370		3.25075		
782.2200		22766.000000		7964.281218		2141.72970		3.71862		
782.7900		22508.000000		8233.033052		1710.31181		4.81376		
783.3700		21222.000000		8154.027295		2893.60194		2.81795		
783.9400		20142.000000		8015.188815		2360.50378		3.39554		
784.5100		22072.000000		8037.205949		3471.58162		2.31514		
785.0800		19753.000000		7867.690522		1175.00340		6.69589		
785.6500		20576.000000		8047.028555		2582.35849		3.11615		
786.2200		18560.000000		7189.153960		2526.70784		2.84527		
786.7900		19348.000000		6415.906030		1707.13760		3.75828		
787.3600		18187.000000		7994.265008		1633.35885		4.89437		
787.9400		18436.000000		7546.078833		1638.27658		4.60611		
788.5100		16086.000000		7048.971664		2416.16672		2.91742		
789.0800		15406.000000		7926.594229		2311.32730		3.42946		
789.6500		14331.000000		7420.885829		2484.64001		2.98670		
790.2200		16223.000000		7488.933570		2468.58488		3.03369		
790.7900		13997.000000		7382.069895		1430.11708		5.16186		
791.3600		14850.000000		7153.517147		2275.15958		3.14418		
791.9300		15335.000000		6773.772401		1995.87718		3.39388		
792.5000		14626.000000		6723.710656		1567.76516		4.28872		
793.0700		13234.000000		6937.792340		1379.25141		5.03011		
793.6500		11954.000000		6505.160308		2239.72819		2.90444		
794.2200		13524.000000		6213.769042		2118.07362		2.93369		
794.7900		12949.000000		5085.574008		2605.59757		1.95179		
795.3600		10237.000000		6257.705684		1985.52593		3.15166		
795.9300		12577.000000		5954.123162		2286.92278		2.60355		
796.5000		14881.000000		7058.043826		2111.32951		3.34294		
797.0700		11280.000000		7382.750551		2309.85018		3.19620		
797.6400		11236.000000		6328.257948		598.88032		10.56682		
798.2100		11664.000000		5901.271931		2262.75667		2.60800		
798.7800		9411.000000		5536.219640		2638.87835		2.09794		
799.3500		10427.000000		5716.649548		2038.86170		2.80384		
799.9200		10710.000000		5956.007303		987.70379		6.03016		
800.4900		9034.000000		6261.831679		1884.72595		3.32241		
801.0600		7727.000000		5086.517227		270.13368		18.82963		
801.6300		8937.000000		5057.799736		2268.55541		2.22952		
802.2000		8642.000000		4922.366976		914.11174		5.38486		
802.7700		6691.000000		4956.773874		1607.06088		3.08437		
803.3400		7066.000000		5434.994512		1272.12913		4.27236		
803.9100		8397.000000		5585.061245		1979.60458		2.82130		
804.4800		7107.000000		6523.459172		2283.72320		2.85650		
805.0500		6533.000000		5683.483119		1931.38974		2.94269		
805.6200		5323.000000		5332.663179		1384.37976		3.85202		
806.1900		8079.000000		5049.110851		1179.02481		4.28245		
806.7600		6179.000000		4958.396183		1623.39450		3.05434		
807.3300		6705.000000		4774.134367		1458.88246		3.27246		
807.9000		5310.000000		5437.096155		1169.64003		4.64852		
808.4700		5309.000000		4840.370416		1406.65992		3.44104		
809.0400		5063.000000		4905.856208		1027.66221		4.77380		
809.6100		4885.000000		4806.680197		736.63458		6.52519		
810.1800		6938.000000		4468.469510		1866.27592		2.39432		
810.7500		6343.000000		5239.632963		1591.22010		3.29284		
811.3200		5902.000000		5186.218861		1417.74892		3.65807		
811.8900		5079.000000		5451.325537		1433.78219		3.80206		
812.4600		4481.000000		4922.139427		506.13509		9.72495		
813.0300		4431.000000		4700.630005		1799.28978		2.61249		
813.6000		4153.000000		3204.344827		2038.15913		1.57218		
814.1600		3753.000000		4021.506437		2448.49003		1.64244		
814.7300		2491.000000		3457.607244		1831.11120		1.88826		
815.3000		3042.000000		4763.671901		1776.42294		2.68161		
815.8700		4504.000000		5031.758557		1520.84962		3.30852		
816.4400		2321.000000		3742.161699		1878.11655		1.99251		
817.0100		2347.000000		4210.502582		1286.86471		3.27191		
817.5800		3763.000000		5192.221712		1993.80182		2.60418		
818.1500		1453.000000		4859.117848		2377.17911		2.04407		
818.7200		3276.000000		4344.280951		1294.10972		3.35696		
819.2900		1727.000000		4137.192914		1664.71063		2.48523		
819.8600		3158.000000		4128.285810		1940.88691		2.12701		
820.4200		1478.000000		4228.915554		255.23733		16.56856		
820.9900		1092.000000		3813.766919		1530.99941		2.49103		
821.5600		1045.000000		4195.455193		1454.29251		2.88488		
822.1300		515.000000		3935.007183		1075.25050		3.65962		
822.7000		90.000000		4031.546223		923.10383		4.36738		
823.2700		1088.000000		4147.424673		2410.48726		1.72058		
823.8400		852.000000		3974.249612		1368.29870		2.90452		
824.4000		689.000000		4187.669597		1150.96260		3.63841		
824.9700		1309.000000		3261.738379		2031.55243		1.60554		
825.5400		729.000000		3366.852793		1055.48484		3.18986		
826.1100		203.000000		3479.925978		1823.66648		1.90820		
826.6800		40.000000		4484.030245		1958.33109		2.28972		
827.2500		209.000000		4085.378648		634.75666		6.43613		
827.8100		991.000000		2238.525569		1419.32504		1.57718		
828.3800		3020.000000		3735.125360		1476.94990		2.52895		
828.9500		942.000000		3625.278707		2101.97112		1.72470		
829.5200		882.000000		3754.791061		1713.53596		2.19125		
830.0900		113.000000		4276.475542		1637.26666		2.61196		
830.6500		1705.000000		3617.965916		1408.10284		2.56939		
831.2200		17.000000		3316.024771		1202.13194		2.75845		
831.7900		1199.000000		3225.043335		1308.20197		2.46525		
832.3600		1813.000000		3976.371616		2071.60937		1.91946		
832.9300		2059.000000		3605.764666		1158.41997		3.11266		
833.4900		2091.000000		3531.732716		1089.77672		3.24079		
834.0600		340.000000		4180.152884		774.26930		5.39884		
834.6300		1763.000000		2971.797274		1745.27825		1.70276		
835.2000		2121.000000		3037.372838		1039.33618		2.92242		
835.7600		2995.000000		3122.675323		1246.95715		2.50424		
836.3300		1482.000000		3826.110074		963.01848		3.97304		
836.9000		1613.000000		3431.730913		2108.03459		1.62793		
837.4700		3452.000000		4642.571664		1394.97848		3.32806		
838.0400		741.000000		3349.911039		618.58436		5.41545		
838.6000		1327.000000		3734.245323		754.27137		4.95080		
839.1700		2945.000000		2577.905952		1759.03763		1.46552		
839.7400		3375.000000		4164.120900		1490.98864		2.79286		
840.3000		4104.000000		2751.337638		1576.52270		1.74519		
840.8700		2631.000000		3484.416918		1330.44117		2.61899		
841.4400		1943.000000		4373.772147		1555.85411		2.81117		
842.0100		2006.000000		3050.285399		672.37350		4.53659		
842.5700		3367.000000		2882.364068		1321.74837		2.18072		
843.1400		3436.000000		3806.522998		1209.92958		3.14607		
843.7100		3819.000000		3766.906681		1593.16406		2.36442		
844.2700		3385.000000		3608.132253		1216.91170		2.96499		
844.8400		4760.000000		1927.920654		1549.49168		1.24423		
845.4100		4421.000000		2810.769450		986.44933		2.84938		
845.9700		4240.000000		3580.461480		1894.55149		1.88987		
846.5400		4148.000000		3525.934016		936.89833		3.76341		
847.1100		5078.000000		2567.917861		1365.62342		1.88040		
847.6800		3829.000000		2954.231905		428.78464		6.88978		
848.2400		3651.000000		3424.287495		1567.91148		2.18398		
848.8100		4446.000000		3803.139479		1260.58187		3.01697		
849.3800		2548.000000		2957.714148		693.00442		4.26796		
849.9400		4780.000000		3233.489660		1800.84557		1.79554		
850.5100		3825.000000		3761.304991		1889.48459		1.99065		
851.0700		3705.000000		2390.765654		650.50552		3.67524		
851.6400		249.000000		2404.745561		855.74565		2.81012		
852.2100		5277.000000		2852.692787		2163.44615		1.31859		
852.7700		4809.000000		2971.806759		1431.13726		2.07654		
853.3400		4861.000000		2787.691407		900.07668		3.09717		
853.9100		4334.000000		3293.383453		1638.71425		2.00974		
854.4700		4519.000000		2469.859450		1677.27881		1.47254		
855.0400		4840.000000		3508.992749		1812.97420		1.93549		
855.6000		4226.000000		2543.812860		1934.67245		1.31485		
856.1700		5661.000000		2826.068069		628.21204		4.49859		
856.7400		3989.000000		2433.274746		2175.23878		1.11862		
857.3000		3348.000000		2544.317613		657.66188		3.86873		
857.8700		4921.000000		2908.361371		1314.89986		2.21185		
858.4300		4271.000000		2337.754057		1872.75068		1.24830		
859.0000		6403.000000		2474.126513		1049.10141		2.35833		
859.5700		4975.000000		2581.558872		1339.09140		1.92784		
860.1300		5694.000000		1894.456094		1841.41722		1.02880		
860.7000		6573.000000		2373.708105		1560.83546		1.52079		
861.2600		4959.000000		2714.642377		1773.20734		1.53092		
861.8300		5677.000000		3002.387941		2276.94788		1.31860		
862.4000		4852.000000		3669.338556		1434.49599		2.55793		
862.9600		6021.000000		2387.912886		1371.76988		1.74075		
863.5300		5544.000000		3101.435768		436.29301		7.10861		
864.0900		5753.000000		2434.175737		1747.80756		1.39270		
864.6600		6457.000000		2565.842224		1753.14635		1.46356		
865.2200		5742.000000		2320.666462		587.93994		3.94711		
865.7900		5459.000000		3184.415349		591.27494		5.38568		
866.3500		5645.000000		3814.687908		1277.99378		2.98490		
866.9200		5517.000000		2674.435242		1445.35910		1.85036		
867.4800		6159.000000		2426.808189		1453.73626		1.66936		
868.0500		6393.000000		3349.549245		2127.42872		1.57446		
868.6100		5044.000000		2646.335116		2003.57660		1.32081		
869.1800		7772.000000		2453.163024		741.50675		3.30835		
869.7400		4624.000000		2993.244332		1693.38129		1.76761		
870.3100		5887.000000		2623.635696		1319.65242		1.98813		
870.8700		6950.000000		2743.614697		1450.97908		1.89087		
871.4400		6592.000000		2993.133651		1342.04086		2.23029		
872.0000		6944.000000		1844.245816		1785.46108		1.03292		
872.5700		8748.000000		3095.699211		804.27613		3.84905		
873.1300		7298.000000		2236.537851		895.27204		2.49817		
873.7000		8641.000000		3094.754475		155.72682		19.87297		
874.2600		5293.000000		3017.394550		1856.13367		1.62563		
874.8300		6622.000000		3722.267785		1546.09859		2.40752		
875.3900		6324.000000		2609.360056		1286.05952		2.02896		
875.9600		7012.000000		3040.323695		1251.62733		2.42910		
876.5200		7735.000000		2555.072823		2156.75823		1.18468		
877.0900		6669.000000		2943.960377		1110.06796		2.65205		
877.6500		5292.000000		2873.740937		1161.50094		2.47416		
878.2100		5983.000000		2711.654726		1873.04191		1.44773		
878.7800		6314.000000		3151.501562		910.34377		3.46188		
879.3400		6604.000000		3453.567352		2157.15249		1.60098		
879.9100		7604.000000		2083.699963		1386.04840		1.50334		
880.4700		6371.000000		2740.396785		740.79459		3.69927		
881.0400		6483.000000		2952.582040		1908.26623		1.54726		
881.6000		8564.000000		3000.305464		1112.17370		2.69770		
882.1600		6509.000000		2638.196273		1453.43970		1.81514		
882.7300		7556.000000		3580.512524		1485.37930		2.41050		
883.2900		7014.000000		2536.404624		1430.74049		1.77279		
883.8600		7809.000000		3647.746028		886.13060		4.11649		
884.4200		6317.000000		2334.335206		1354.70219		1.72314		
884.9800		8397.000000		1834.997213		1120.00961		1.63838		
885.5500		5638.000000		3333.993779		803.94134		4.14706		
886.1100		7252.000000		2225.815446		964.41689		2.30794		
886.6700		8585.000000		1859.247684		1334.78530		1.39292		
887.2400		8141.000000		3224.441009		1128.87029		2.85634		
887.8000		7067.000000		2134.975236		1018.87872		2.09542		
888.3700		6064.000000		3204.317633		1087.42458		2.94670		
888.9300		7723.000000		3360.720189		777.17834		4.32426		
889.4900		8076.000000		3167.049327		1103.98117		2.86875		
890.0600		6720.000000		2349.335799		1161.96912		2.02186		
890.6200		8137.000000		3412.894451		1380.99372		2.47133		
891.1800		6629.000000		2739.034263		284.49360		9.62775		
891.7500		7317.000000		2363.646129		1211.70689		1.95067		
892.3100		7017.000000		2149.320786		2195.40867		0.97901		
892.8700		5918.000000		2400.689167		1247.64306		1.92418		
893.4400		7601.000000		2172.403278		1188.86245		1.82730		
894.0000		8487.000000		3468.430682		1643.41382		2.11050		
894.5600		5622.000000		2296.081813		1346.83192		1.70480		
895.1200		7596.000000		3586.728604		2188.52846		1.63888		
895.6900		9332.000000		2453.826513		2252.65073		1.08931		
896.2500		7511.000000		1942.806137		776.91807		2.50066		
896.8100		6183.000000		3271.820962		1195.72600		2.73626		
897.3800		8542.000000		3292.756390		1488.75698		2.21175		
897.9400		7293.000000		2408.672840		2095.44969		1.14948		
898.5000		7688.000000		1868.939227		1197.49158		1.56071		
899.0600		7950.000000		2531.811104		1891.09625		1.33881		
899.6300		6334.000000		3227.839783		1826.67065		1.76706		
900.1900		7371.000000		2557.751936		1035.55265		2.46994		
900.7500		7412.000000		3129.262210		86.82389		36.04149		
901.3200		8008.000000		2975.307255		806.60365		3.68869		
901.8800		7610.000000		3254.381925		1455.23972		2.23632		
902.4400		8798.000000		2526.891313		1161.22928		2.17605		
903.0000		8383.000000		3041.691499		808.60912		3.76163		
903.5600		8303.000000		2649.921191		1052.02638		2.51887		
904.1300		8268.000000		2727.630359		19.57411		139.34888		
904.6900		6744.000000		2265.383945		1020.26953		2.22038		
905.2500		7618.000000		2350.948388		968.33745		2.42782		
905.8100		7770.000000		2449.103264		566.99980		4.31941		
906.3800		6503.000000		3029.519127		778.86856		3.88964		
906.9400		6818.000000		2430.724770		1789.88539		1.35803		
907.5000		7448.000000		1452.550080		907.04626		1.60141		
908.0600		8747.000000		1701.155731		1709.85430		0.99491		
908.6200		8358.000000		2794.864638		1458.49362		1.91627		
909.1900		6231.000000		1744.450174		1352.36782		1.28992		
909.7500		9451.000000		3729.456617		1461.40747		2.55196		
910.3100		6508.000000		2737.979207		1443.87693		1.89627		
910.8700		8186.000000		2717.601851		1078.62177		2.51951		
911.4300		8162.000000		2311.653334		1286.38194		1.79702		
912.0000		8770.000000		2763.892114		1544.53688		1.78946		
912.5600		7961.000000		2151.765083		1395.35625		1.54209		
913.1200		6553.000000		2953.900988		1994.45752		1.48105		
913.6800		6508.000000		1887.440992		1594.78460		1.18351		
914.2400		6874.000000		2486.462354		1432.99649		1.73515		
914.8000		3600.000000		1911.337864		2068.48043		0.92403		
915.3600		8024.000000		3225.075283		2461.26161		1.31033		
915.9300		8543.000000		2699.883750		1788.82814		1.50930		
916.4900		7261.000000		3069.406651		740.59035		4.14454		
917.0500		7965.000000		2253.467309		1793.06919		1.25677		
917.6100		7430.000000		3339.604151		1265.50832		2.63894		
918.1700		6708.000000		2397.242898		1569.24075		1.52765		
918.7300		6744.000000		3161.912571		724.08709		4.36676		
919.2900		8344.000000		2383.920525		1008.72477		2.36330		
919.8500		8171.000000		4051.479645		2060.64654		1.96612		
920.4100		8100.000000		3061.603086		1831.83900		1.67133		
920.9800		8679.000000		2422.189980		1993.01451		1.21534		
921.5400		7267.000000		2344.083920		2558.08776		0.91634		
922.1000		7157.000000		1994.299608		1235.03323		1.61477		
922.6600		7522.000000		3239.416556		1583.85641		2.04527		
923.2200		9286.000000		1856.706003		1681.19336		1.10440		
923.7800		7853.000000		3122.036883		1319.07101		2.36685		
924.3400		8653.000000		3038.546142		1121.47016		2.70943		
924.9000		7477.000000		2488.839891		1647.70898		1.51049		
925.4600		8712.000000		1842.428603		1518.93092		1.21298		
926.0200		7712.000000		3059.215794		1183.55600		2.58477		
926.5800		7996.000000		2271.832000		1176.86094		1.93042		
927.1400		7595.000000		1769.458303		1987.00841		0.89051		
927.7000		8905.000000		3465.789488		1559.76498		2.22199		
928.2600		7143.000000		3085.975803		825.37355		3.73888		
928.8200		6836.000000		2531.664048		1557.25325		1.62572		
929.3800		6795.000000		3669.205041		2162.23893		1.69695		
929.9500		8062.000000		3258.918303		1617.60100		2.01466		
930.5100		6565.000000		2334.100151		1493.84770		1.56248		
931.0700		8956.000000		2742.858061		1066.92413		2.57081		
931.6300		7834.000000		2318.806314		1087.73144		2.13178		
932.1900		9192.000000		2838.841861		1033.83963		2.74592		
932.7500		8366.000000		2769.050716		1946.61577		1.42249		
933.3100		9796.000000		1855.892062		2130.09350		0.87127		
933.8700		8964.000000		1630.477789		606.26015		2.68940		
934.4300		6988.000000		1796.487223		1298.04612		1.38399		
934.9900		5731.000000		2557.724292		1673.34441		1.52851		
935.5500		7624.000000		3309.749417		1180.43170		2.80385		
936.1000		5464.000000		3043.308789		1328.89248		2.29011		
936.6600		7252.000000		4120.640551		2532.59467		1.62704		
937.2200		8055.000000		1915.981131		1670.24468		1.14713		
937.7800		8278.000000		2184.472087		1277.95178		1.70935		
938.3400		7423.000000		1992.657813		2277.36752		0.87498		
938.9000		7344.000000		3527.022425		2016.96454		1.74868		
939.4600		6807.000000		3677.496239		260.12623		14.13735		
940.0200		7980.000000		2296.739480		299.06511		7.67973		
940.5800		6441.000000		2970.971646		1912.61828		1.55335		
941.1400		8544.000000		3227.404438		592.23342		5.44955		
941.7000		7022.000000		1735.746209		2007.67987		0.86455		
942.2600		7770.000000		2395.966601		1177.83122		2.03422		
942.8200		8141.000000		2800.371129		1070.71174		2.61543		
943.3800		3368.000000		2165.082436		1700.80344		1.27298		
943.9400		5720.000000		3129.628919		925.96814		3.37985		
944.5000		8424.000000		2390.637410		1309.49068		1.82562		
945.0500		6556.000000		3135.112495		2791.78618		1.12298		
945.6100		7013.000000		2526.883383		1001.80436		2.52233		
946.1700		6566.000000		2347.301896		1763.45870		1.33108		
946.7300		6099.000000		3461.833485		2113.73937		1.63778		
947.2900		9389.000000		2411.308265		1375.60766		1.75290		
947.8500		5305.000000		3207.124300		2223.47277		1.44239		
948.4100		8162.000000		2923.729807		1728.54990		1.69144		
948.9700		7078.000000		4069.908771		1332.30677		3.05478		
949.5200		8647.000000		2528.260479		2365.59547		1.06876		
950.0800		8293.000000		3206.993276		757.64142		4.23286		
950.6400		7207.000000		2486.110731		2960.43603		0.83978		
951.2000		7602.000000		3300.656268		2315.56193		1.42542		
951.7600		7577.000000		2489.846966		1406.90070		1.76974		
952.3200		6308.000000		2987.116372		1135.58701		2.63046		
952.8800		6383.000000		3717.940628		1339.25258		2.77613		
953.4300		6274.000000		3414.008918		1912.66176		1.78495		
953.9900		6302.000000		2526.434578		1692.56394		1.49267		
954.5500		7502.000000		2882.592649		1982.86567		1.45375		
955.1100		5905.000000		3332.433416		1489.51624		2.23726		
955.6700		7695.000000		3103.716828		1626.47054		1.90825		
956.2200		6920.000000		2745.028203		2079.94846		1.31976		
956.7800		6924.000000		2072.760610		1881.71556		1.10153		
957.3400		6648.000000		3072.278775		2300.46215		1.33551		
957.9000		6640.000000		3887.217405		1333.62412		2.91478		
958.4600		7208.000000		2036.999765		1089.08288		1.87038		
959.0100		6878.000000		2855.731754		1942.08762		1.47044		
959.5700		6702.000000		3133.411389		1452.36312		2.15746		
960.1300		9112.000000		3435.379006		1910.01406		1.79861		
960.6900		7971.000000		2776.151441		1923.79389		1.44306		
961.2400		7440.000000		2022.851596		2718.70540		0.74405		
961.8000		5502.000000		3356.671207		839.28853		3.99942		
962.3600		6320.000000		3652.151962		645.44044		5.65839		
962.9200		6577.000000		3104.153086		2021.07896		1.53589		
963.4700		7002.000000		2836.435661		1389.01663		2.04205		
964.0300		7686.000000		2606.296717		2908.85915		0.89599		
964.5900		7066.000000		3093.477932		1267.89073		2.43986		
965.1500		4487.000000		2309.848801		2201.53053		1.04920		
965.7000		6122.000000		3216.392714		2029.88289		1.58452		
966.2600		8010.000000		2333.887826		1758.57261		1.32715		
966.8200		5190.000000		3559.873989		2413.33635		1.47508		
967.3800		5165.000000		2333.435972		1818.77652		1.28297		
967.9300		5314.000000		3503.755930		1782.56982		1.96556		
968.4900		5614.000000		2930.016287		2735.11914		1.07126		
969.0500		7034.000000		3455.427985		1780.66933		1.94052		
969.6000		7267.000000		3273.070870		2160.64201		1.51486		
970.1600		5411.000000		4115.080361		1926.69081		2.13583		
970.7200		6528.000000		2844.653674		2024.25936		1.40528		
971.2700		6353.000000		3387.779810		1074.70969		3.15227		
971.8300		6346.000000		3383.419245		1689.48446		2.00263		
972.3900		5533.000000		3290.799734		2087.04393		1.57678		
972.9400		5673.000000		3340.820538		1936.78885		1.72493		
973.5000		5941.000000		2366.244100		1584.46412		1.49340		
974.0600		6512.000000		2200.051851		1286.16678		1.71055		
974.6100		6328.000000		3079.649321		2044.30561		1.50645		
975.1700		5461.000000		3591.844767		1527.66334		2.35120		
975.7300		5407.000000		2723.559460		1485.15423		1.83386		
976.2800		4304.000000		3066.481077		3230.47518		0.94924		
976.8400		6030.000000		3528.069560		1611.48983		2.18932		
977.4000		3495.000000		2729.637700		1740.46750		1.56834		
977.9500		5899.000000		3454.567039		1325.56985		2.60610		
978.5100		6076.000000		2750.849780		1927.52496		1.42714		
979.0600		6932.000000		3156.416308		1547.10297		2.04021		
979.6200		7307.000000		2630.308018		1971.32300		1.33429		
980.1800		5621.000000		2912.506842		1872.15632		1.55570		
980.7300		6478.000000		2671.231604		1910.01780		1.39854		
981.2900		5646.000000		2875.005265		1823.69880		1.57647		
981.8400		5467.000000		3817.410380		2372.35166		1.60913		
982.4000		5284.000000		3478.569950		1672.78136		2.07951		
982.9600		5654.000000		3494.488564		1448.30275		2.41282		
983.5100		6817.000000		3687.846710		1879.49217		1.96215		
984.0700		5601.000000		3616.315327		2137.58642		1.69178		
984.6200		4804.000000		3041.315578		2014.91123		1.50940		
985.1800		6098.000000		2410.226313		1957.60565		1.23121		
985.7300		6972.000000		3847.047704		2241.17153		1.71653		
986.2900		7223.000000		3394.888604		2208.79801		1.53698		
986.8500		5862.000000		3676.435751		2548.46197		1.44261		
987.4000		5140.000000		3219.397642		1298.94858		2.47846		
987.9600		5300.000000		4021.819008		2293.07180		1.75390		
988.5100		4464.000000		2953.447796		1035.50628		2.85218		
989.0700		5882.000000		3471.406559		1567.25071		2.21497		
989.6200		5558.000000		3926.075068		2544.52223		1.54295		
990.1800		3440.000000		3396.713417		2039.10333		1.66579		
990.7300		5888.000000		3698.145577		1479.44666		2.49968		
991.2900		4376.000000		3357.953274		1570.89740		2.13760		
991.8400		5164.000000		3387.257567		2345.74168		1.44400		
992.4000		4430.000000		3951.737564		2416.30851		1.63544		
992.9500		4994.000000		3386.365381		1664.43206		2.03455		
993.5100		4912.000000		3418.614155		3018.69211		1.13248		
994.0600		6968.000000		3087.211117		2398.49412		1.28715		
994.6200		4427.000000		4185.471186		2247.43151		1.86234		
995.1700		5972.000000		3467.639654		1597.71986		2.17037		
995.7300		5721.000000		3760.022768		1148.70206		3.27328		
996.2800		5273.000000		2676.891366		1053.13618		2.54183		
996.8400		4527.000000		3708.471546		1523.54980		2.43410		
997.3900		5573.000000		3193.363908		2547.49222		1.25353		
997.9500		3520.000000		3254.100975		1311.46028		2.48128		
998.5000		2989.000000		3220.736955		1830.59598		1.75939		
999.0500		4673.000000		4131.175471		2244.57873		1.84051		
999.6100		5460.000000		3342.704057		1533.43322		2.17988		
1000.1600		5334.000000		4121.190930		1065.84892		3.86658		
1000.7200		3792.000000		3495.377606		2150.97830		1.62502		
1001.2700		4713.000000		3378.341974		1749.78978		1.93071		
1001.8300		5054.000000		3571.968925		2149.27184		1.66194		
1002.3800		5525.000000		3419.433584		1326.50102		2.57778		
1002.9300		5416.000000		3297.199424		1146.87515		2.87494		
1003.4900		5275.000000		3098.483775		2649.00534		1.16968		
1004.0400		4560.000000		3283.130879		1781.89697		1.84249		
1004.6000		3237.000000		3891.504627		2582.06166		1.50713		
1005.1500		4180.000000		2991.673619		2465.83399		1.21325		
1005.7000		4483.000000		3702.298827		1746.62994		2.11968		
1006.2600		1970.000000		3729.869339		2302.82795		1.61969		
1006.8100		3526.000000		4061.892654		1673.61560		2.42702		
1007.3600		3342.000000		4168.217194		1685.71049		2.47268		
1007.9200		5658.000000		3701.166440		1905.70369		1.94215		
1008.4700		4646.000000		3479.049964		2198.19700		1.58268		
1009.0300		5158.000000		3589.586601		2539.41513		1.41355		
1009.5800		4584.000000		3316.341605		2455.74265		1.35044		
1010.1300		5366.000000		4484.114099		1462.41992		3.06623		
1010.6900		3462.000000		4593.413973		1721.18821		2.66875		
1011.2400		3965.000000		3541.569472		2260.97727		1.56639		
1011.7900		4016.000000		3973.058756		2480.34793		1.60182		
1012.3500		4712.000000		3235.586622		1682.74479		1.92280		
1012.9000		4583.000000		4260.546851		2176.71880		1.95733		
1013.4500		3706.000000		2567.578340		2588.32422		0.99198		
1014.0100		2552.000000		2521.555886		3046.00390		0.82782		
1014.5600		3070.000000		4364.495289		1159.49427		3.76414		
1015.1100		4199.000000		4004.025274		2114.78143		1.89335		
1015.6600		5062.000000		4207.781003		1907.71726		2.20566		
1016.2200		4575.000000		3820.657653		1219.88550		3.13198		
1016.7700		3276.000000		4191.283199		2042.20873		2.05233		
1017.3200		2933.000000		5230.880984		1992.85993		2.62481		
1017.8800		4862.000000		3927.323069		1685.42856		2.33016		
1018.4300		4463.000000		3578.498668		2122.24682		1.68618		
1018.9800		4899.000000		4242.018073		2027.02596		2.09273		
1019.5300		3149.000000		3766.198662		2395.17805		1.57241		
1020.0900		3895.000000		4219.260083		1682.17180		2.50822		
1020.6400		4606.000000		3168.167350		1855.66524		1.70729		
1021.1900		2403.000000		3454.078444		1342.69306		2.57250		
1021.7400		3880.000000		3993.520973		2402.77953		1.66204		
1022.3000		4851.000000		4064.928309		1355.62180		2.99857		
1022.8500		2864.000000		3720.834180		3124.17336		1.19098		
1023.4000		5588.000000		4126.635816		1460.12968		2.82621		
1023.9500		3416.000000		3301.417704		2164.54270		1.52523		
1024.5100		4041.000000		4340.509475		2767.88909		1.56817		
1025.0600		2974.000000		4151.319985		3157.70070		1.31467		
1025.6100		5677.000000		4354.958746		1788.21925		2.43536		
1026.1600		4112.000000		3857.794851		1911.27673		2.01844		
1026.7100		3180.000000		4037.936210		2483.67158		1.62579		
1027.2700		2721.000000		4555.429831		924.52244		4.92733		
1027.8200		4677.000000		4096.563473		2199.96246		1.86211		
1028.3700		3893.000000		4237.313285		1809.24957		2.34203		
1028.9200		3250.000000		4561.544389		2018.28619		2.26011		
1029.4700		5825.000000		3523.033785		1713.68745		2.05582		
1030.0300		2404.000000		4089.803344		2738.37896		1.49351		
1030.5800		3495.000000		3882.753323		1862.52036		2.08468		
1031.1300		3647.000000		4129.388856		1927.22321		2.14266		
1031.6800		3119.000000		4542.496473		3088.30996		1.47087		
1032.2300		4723.000000		3370.841569		2345.84551		1.43694		
1032.7800		2455.000000		3581.150472		1650.62698		2.16957		
1033.3300		3329.000000		4009.292286		2069.42984		1.93739		
1033.8900		3135.000000		3817.165968		2221.69236		1.71813		
1034.4400		5260.000000		4657.671457		1252.81738		3.71776		
1034.9900		2765.000000		4011.730241		1807.79291		2.21913		
1035.5400		4851.000000		3319.603563		1307.19075		2.53949		
1036.0900		3491.000000		3176.027601		2592.63008		1.22502		
1036.6400		3956.000000		4380.133153		1910.92542		2.29215		
1037.1900		4888.000000		3226.642852		1521.33230		2.12093		
1037.7400		4828.000000		3529.190837		1031.94627		3.41994		
1038.3000		2551.000000		4241.522930		2327.71145		1.82219		
1038.8500		4959.000000		3066.690429		1499.32494		2.04538		
1039.4000		5064.000000		4008.928329		1881.66870		2.13052		
1039.9500		3386.000000		4497.021802		2260.73558		1.98919		
1040.5000		4939.000000		4292.644046		2631.57212		1.63121		
1041.0500		4024.000000		3626.615925		2142.45866		1.69274		
1041.6000		4078.000000		4954.207178		2139.13627		2.31598		
1042.1500		4166.000000		4425.316708		2837.46593		1.55960		
1042.7000		3503.000000		4490.924068		1701.08683		2.64003		
1043.2500		4069.000000		4202.885798		2299.66058		1.82761		
1043.8000		4635.000000		3839.990052		3190.30719		1.20364		
1044.3500		3827.000000		5403.555372		3229.72405		1.67307		
1044.9000		3322.000000		3148.048414		2700.92741		1.16554		
1045.4500		4999.000000		4465.224292		2213.66414		2.01712		
1046.0000		4626.000000		3762.797918		1311.39556		2.86931		
1046.5500		5932.000000		4560.256354		1910.00930		2.38756		
1047.1000		3886.000000		4235.626022		1687.27390		2.51034		
1047.6500		3641.000000		3570.581549		1257.04274		2.84046		
1048.2000		5033.000000		3889.318799		1897.81523		2.04937		
1048.7500		3760.000000		3179.062246		1662.83880		1.91183		
1049.3000		4653.000000		4273.797225		1887.64345		2.26409		
1049.8500		1928.000000		3711.468427		2044.47326		1.81537		
1050.4000		4757.000000		3309.058262		2054.24528		1.61084		
1050.9500		3584.000000		3708.973658		2410.13943		1.53890		
1051.5000		5076.000000		4289.082927		2636.87258		1.62658		
1052.0500		6494.000000		4363.968892		2164.77269		2.01590		
1052.6000		4566.000000		3588.965513		2456.51278		1.46100		
1053.1500		3225.000000		4384.525222		1243.87598		3.52489		
1053.7000		4232.000000		3639.031324		2276.81610		1.59830		
1054.2500		6104.000000		3633.315809		2690.45995		1.35044		
1054.8000		2763.000000		4177.447441		2072.96010		2.01521		
1055.3500		4432.000000		3586.278964		1724.49598		2.07961		
1055.9000		5391.000000		3986.223464		2181.54307		1.82725		
1056.4500		5331.000000		3934.731038		2187.63623		1.79862		
1057.0000		3879.000000		4314.799481		2112.92335		2.04210		
1057.5500		3129.000000		3663.487818		2563.06091		1.42934		
1058.1000		5649.000000		3797.736757		1969.93087		1.92785		
1058.6500		4527.000000		3650.433028		1405.13146		2.59793		
1059.2000		2295.000000		3694.967261		2401.27524		1.53875		
1059.7400		4154.000000		4204.258935		1477.20469		2.84609		
1060.2900		4055.000000		4166.240066		2777.96286		1.49975		
1060.8400		4941.000000		4638.505784		3849.58459		1.20494		
1061.3900		5326.000000		3936.707111		2063.10311		1.90815		
1061.9400		4098.000000		4292.703519		1530.19164		2.80534		
1062.4900		5531.000000		3557.554419		2225.08248		1.59884		
1063.0400		5048.000000		4334.722778		2552.70438		1.69809		
1063.5900		4442.000000		3431.194821		2560.89147		1.33984		
1064.1400		4454.000000		4700.444602		1658.61545		2.83396		
1064.6800		5042.000000		4225.174116		845.62968		4.99648		
1065.2300		4862.000000		4510.013125		2565.63871		1.75785		
1065.7800		5874.000000		4036.301045		1647.62879		2.44976		
1066.3300		5553.000000		4534.906134		1458.19170		3.10995		
1066.8800		2694.000000		4188.474803		2058.83776		2.03439		
1067.4300		4147.000000		3740.419998		1519.01299		2.46240		
1067.9700		5017.000000		4563.304256		1852.81183		2.46291		
1068.5200		4835.000000		3451.821032		1190.94832		2.89838		
1069.0700		5255.000000		3698.451035		2373.71618		1.55808		
1069.6200		3811.000000		5481.426053		1541.71673		3.55540		
1070.1700		3778.000000		3959.453860		1548.16513		2.55751		
1070.7200		7327.000000		4254.462910		1291.06119		3.29532		
1071.2600		5672.000000		3069.191678		1761.88508		1.74199		
1071.8100		5602.000000		5199.428934		2156.97356		2.41052		
1072.3600		5520.000000		3297.670003		2491.71100		1.32346		
1072.9100		7105.000000		3880.595205		2301.06100		1.68644		
1073.4500		6194.000000		4055.222023		1744.94502		2.32398		
1074.0000		5866.000000		3182.341528		2062.54633		1.54292		
1074.5500		6658.000000		4274.877273		1661.84841		2.57236		
1075.1000		5887.000000		4357.445345		1884.71386		2.31199		
1075.6500		5654.000000		4686.955663		2282.23805		2.05367		
1076.1900		7546.000000		4269.555435		2912.14557		1.46612		
1076.7400		6536.000000		3188.036583		1904.93083		1.67357		
1077.2900		6821.000000		4388.390509		1803.65638		2.43305		
1077.8400		7574.000000		3937.854346		1288.24383		3.05676		
1078.3800		7700.000000		4105.343129		1022.35522		4.01557		
1078.9300		6626.000000		4771.300381		2591.51232		1.84113		
1079.4800		6910.000000		4198.593272		1749.34630		2.40009		
1080.0200		6672.000000		3929.332114		1684.88274		2.33211		
1080.5700		5884.000000		3599.281964		2038.96274		1.76525		
1081.1200		8074.000000		3813.688045		2128.74982		1.79152		
1081.6700		7943.000000		4327.694921		958.79281		4.51369		
1082.2100		7557.000000		3485.899120		2171.31231		1.60543		
1082.7600		7391.000000		2964.342421		2305.87434		1.28556		
1083.3100		6767.000000		4370.941493		1721.21053		2.53946		
1083.8500		8349.000000		2995.735359		2117.05667		1.41505		
1084.4000		6443.000000		3602.769162		1748.71748		2.06024		
1084.9500		7354.000000		4192.652130		1823.78112		2.29888		
1085.4900		6916.000000		3449.387307		1908.29145		1.80758		
1086.0400		8437.000000		3605.153331		1683.72586		2.14118		
1086.5900		8603.000000		4262.491039		1215.23235		3.50755		
1087.1300		7644.000000		4352.924923		1302.50455		3.34197		
1087.6800		7972.000000		3324.392573		2496.11956		1.33182		
1088.2300		6723.000000		2831.516036		816.08831		3.46962		
1088.7700		5577.000000		3779.867677		1958.87142		1.92962		
1089.3200		6846.000000		3593.530641		927.62205		3.87392		
1089.8700		7814.000000		3880.891734		1963.30907		1.97671		
1090.4100		8305.000000		4389.684952		2581.45415		1.70047		
1090.9600		9541.000000		3403.147921		2334.05151		1.45804		
1091.5000		8161.000000		2528.476217		1265.05055		1.99872		
1092.0500		9440.000000		3601.491701		1357.18437		2.65365		
1092.6000		7671.000000		4279.809804		1429.11690		2.99472		
1093.1400		9750.000000		3959.515000		1478.02536		2.67892		
1093.6900		8848.000000		4454.382630		3192.77636		1.39514		
1094.2300		9031.000000		3361.070677		2167.38098		1.55075		
1094.7800		10396.000000		4373.561047		1985.40391		2.20286		
1095.3300		8998.000000		3690.031835		1884.33003		1.95827		
1095.8700		10259.000000		4542.652666		1916.17322		2.37069		
1096.4200		9296.000000		3924.238412		1485.66489		2.64140		
1096.9600		10060.000000		4192.223408		1078.67253		3.88647		
1097.5100		8887.000000		3633.890714		2590.01222		1.40304		
1098.0500		10307.000000		4410.851994		1825.69263		2.41599		
1098.6000		11237.000000		3836.580679		2109.04850		1.81911		
1099.1400		9321.000000		3530.769192		1638.24072		2.15522		
1099.6900		9607.000000		3066.786778		1764.32270		1.73822		
1100.2300		10275.000000		3835.448699		1128.37681		3.39909		

